Data from deutdg_266ms_15_SR4014911__0__16-47-19-341.txt Node

Date: Sun Jul 13 16:47:19 EDT 2025
User: cryst
Spectrometer: SR401491
Trigger mode: 0
Integration Time (sec): 2.660000E-1
Scans to average: 15
Electric dark correction enabled: true
Nonlinearity correction enabled: true
Boxcar width: 0
XAxis mode: Wavelengths
Number of Pixels in Spectrum: 3648
>>>>>Begin Spectral Data<<<<<
344.912	-479.76235
345.129	-489.53085
345.347	-486.27422
345.565	-469.18452
345.783	221.40772
346.001	135.92364
346.219	94.60078
346.437	153.38772
346.654	318.83073
346.872	103.05827
347.09	-48.05954
347.308	267.71754
347.526	178.69835
347.743	60.31014
347.961	411.498
348.179	221.11985
348.397	234.64676
348.614	382.23939
348.832	461.65117
349.05	467.86101
349.268	482.34578
349.485	492.83052
349.703	357.46526
349.921	580.56514
350.138	578.0049
350.356	551.67948
350.574	357.03547
350.791	459.50955
351.009	544.20478
351.227	471.50068
351.444	431.51201
351.662	490.69107
351.879	375.72565
352.097	469.71658
352.314	422.29291
352.532	441.08548
352.75	510.79615
352.967	533.45236
353.185	547.19487
353.402	391.18453
353.62	390.61212
353.837	549.40167
354.055	476.2102
354.272	607.08001
354.49	729.63607
354.707	672.4572
354.925	390.25436
355.142	552.88951
355.359	646.9891
355.577	654.29812
355.794	602.03462
356.012	724.96339
356.229	524.976
356.446	480.63365
356.664	576.29797
356.881	647.55685
357.099	465.57707
357.316	499.24801
357.533	592.5102
357.751	454.44047
357.968	942.77533
358.185	654.08526
358.402	552.96068
358.62	721.42305
358.837	692.66166
359.054	450.15608
359.272	465.7912
359.489	479.84889
359.706	565.27181
359.923	635.98702
360.141	546.62535
360.358	640.60125
360.575	603.59807
360.792	502.31367
361.009	500.31746
361.226	544.48957
361.444	786.43565
361.661	607.79057
361.878	533.73724
362.095	492.26002
362.312	613.19027
362.529	635.34808
362.746	626.11749
362.963	417.57508
363.181	470.21614
363.398	563.35073
363.615	771.23704
363.832	402.2728
364.049	424.72302
364.266	785.0221
364.483	634.92211
364.7	529.89114
364.917	374.86658
365.134	634.78012
365.351	566.12558
365.568	636.34199
365.785	490.54843
366.002	423.65094
366.219	486.83968
366.436	648.40846
366.652	719.15704
366.869	508.23027
367.086	695.21293
367.303	408.0657
367.52	478.63604
367.737	713.77464
367.954	652.59519
368.171	510.29725
368.387	842.50679
368.604	539.07825
368.821	571.81683
369.038	489.54996
369.255	589.73763
369.471	419.43371
369.688	733.95418
369.905	679.83148
370.122	628.81593
370.339	592.01257
370.555	445.44256
370.772	446.15678
370.989	896.16382
371.205	536.6571
371.422	601.53715
371.639	488.3375
371.855	793.50248
372.072	554.5977
372.289	497.82201
372.505	756.38538
372.722	452.58397
372.939	547.33725
373.155	723.26407
373.372	468.64607
373.589	651.0341
373.805	546.55416
374.022	494.39936
374.238	406.27789
374.455	619.72555
374.671	699.96061
374.888	611.62729
375.104	346.93359
375.321	390.89833
375.537	545.77106
375.754	666.92541
375.97	589.45325
376.187	848.64515
376.403	515.0009
376.62	586.11161
376.836	478.85008
377.053	588.6712
377.269	511.58013
377.486	487.33896
377.702	330.37622
377.918	405.56273
378.135	543.7776
378.351	643.51142
378.568	519.84635
378.784	585.8983
379	574.02191
379.217	517.49497
379.433	458.2959
379.649	770.035
379.865	477.92258
380.082	744.85321
380.298	464.64918
380.514	828.8151
380.731	526.97064
380.947	417.36061
381.163	603.527
381.379	539.22067
381.596	560.57564
381.812	751.64563
382.028	589.87982
382.244	535.58889
382.46	443.7998
382.676	773.64098
382.893	596.84629
383.109	568.75791
383.325	513.71815
383.541	697.764
383.757	349.22652
383.973	607.00895
384.189	723.83052
384.405	580.28068
384.622	573.16835
384.838	660.04485
385.054	604.09551
385.27	755.53652
385.486	518.06502
385.702	425.0089
385.918	589.66654
386.134	588.24461
386.35	684.72313
386.566	784.45667
386.782	713.56216
386.998	729.06972
387.214	643.79533
387.43	628.10584
387.646	815.68299
387.861	707.11628
388.077	619.51247
388.293	678.48438
388.509	750.7259
388.725	594.21627
388.941	656.7814
389.157	561.5007
389.373	627.46674
389.588	646.20843
389.804	650.25352
390.02	819.84909
390.236	474.8545
390.452	583.76514
390.668	503.45431
390.883	857.18063
391.099	657.06519
391.315	717.45743
391.531	550.39823
391.746	613.97173
391.962	666.358
392.178	643.22752
392.393	572.95495
392.609	898.20698
392.825	601.32394
393.041	543.70641
393.256	705.55775
393.472	793.50248
393.687	691.95294
393.903	827.12091
394.119	699.60633
394.334	719.51111
394.55	825.99141
394.766	682.7382
394.981	828.25038
395.197	856.75743
395.412	922.36377
395.628	887.28532
395.843	909.54789
396.059	1228.29272
396.274	832.27382
396.49	1033.01369
396.705	734.09575
396.921	529.17885
397.136	743.43795
397.352	721.91872
397.567	641.9499
397.783	682.45463
397.998	712.71223
398.214	710.94146
398.429	535.44646
398.644	1002.74778
398.86	661.9602
399.075	822.32027
399.29	623.48985
399.506	592.36802
399.721	703.43236
399.936	667.91837
400.152	594.71386
400.367	693.08688
400.582	685.99909
400.798	806.00725
401.013	533.52358
401.228	758.2245
401.444	749.7354
401.659	668.84037
401.874	872.41242
402.089	697.33884
402.304	720.78575
402.52	730.55637
402.735	595.78009
402.95	604.66401
403.165	786.43565
403.38	893.76825
403.596	655.43336
403.811	771.73198
404.026	981.17452
404.241	614.89525
404.456	668.98221
404.671	897.78426
404.886	784.10327
405.101	681.95837
405.316	713.06637
405.532	928.06608
405.747	763.4584
405.962	779.0846
406.177	768.33793
406.392	688.26735
406.607	883.7615
406.822	874.80942
407.037	911.73114
407.252	1139.35076
407.467	1076.29892
407.682	1092.77234
407.896	1235.6957
408.111	1229.27055
408.326	1333.62549
408.541	1619.80252
408.756	1826.77193
408.971	1926.3667
409.186	1936.34356
409.401	1691.95286
409.616	943.33824
409.83	766.00433
410.045	652.45328
410.26	625.19429
410.475	584.83174
410.69	748.53261
410.905	761.54883
411.119	522.26879
411.334	634.28314
411.549	695.92158
411.764	804.9477
411.978	872.0599
412.193	721.91872
412.408	664.79756
412.623	507.87388
412.837	900.46136
413.052	787.9198
413.267	763.67057
413.481	646.2794
413.696	627.75079
413.911	602.46103
414.125	633.78616
414.34	559.22358
414.554	627.67977
414.769	787.49576
414.984	683.16355
415.198	527.18435
415.413	576.72471
415.627	685.21934
415.842	638.9686
416.056	768.47936
416.271	607.86162
416.485	704.06999
416.7	761.90246
416.914	650.18256
417.129	631.15914
417.343	735.36984
417.558	685.29023
417.772	768.26722
417.987	721.35224
418.201	654.86574
418.415	540.85839
418.63	687.7003
418.844	648.19556
419.059	812.29326
419.273	667.42189
419.487	890.73833
419.702	753.55576
419.916	948.61516
420.13	660.54143
420.345	639.11057
420.559	663.80451
420.773	671.67713
420.988	702.86557
421.202	854.99405
421.416	665.365
421.63	698.18916
421.845	737.70554
422.059	710.72896
422.273	545.84225
422.487	737.56399
422.701	921.51891
422.916	914.97055
423.13	662.03114
423.344	638.9686
423.558	587.46253
423.772	566.48131
423.986	694.22079
424.201	628.17685
424.415	893.62733
424.629	780.92251
424.843	707.82468
425.057	799.93205
425.271	518.20753
425.485	538.43738
425.699	534.23577
425.913	806.00725
426.127	701.30684
426.341	662.81143
426.555	698.04744
426.769	765.15571
426.983	873.39944
427.197	771.37845
427.411	686.28263
427.625	895.882
427.839	658.34222
428.053	673.16634
428.267	631.15914
428.481	802.26336
428.695	644.71801
428.908	528.96516
429.122	773.78239
429.336	728.14938
429.55	679.54788
429.764	803.88812
429.978	1096.06618
430.191	1193.6344
430.405	1596.95196
430.619	1661.80527
430.833	2234.43114
431.047	2851.68151
431.26	3840.64671
431.474	4580.85699
431.688	5128.84582
431.901	5348.49151
432.115	6385.13941
432.329	7004.65609
432.543	7699.36953
432.756	8965.78912
432.97	9320.77708
433.184	6666.12999
433.397	3088.16283
433.611	1113.23167
433.824	976.74588
434.038	762.46826
434.252	764.80211
434.465	695.42553
434.679	665.8615
434.892	776.11546
435.106	481.20437
435.319	640.95616
435.533	871.49587
435.747	801.27434
435.96	529.32131
436.174	843.00072
436.387	816.6716
436.601	750.08915
436.814	887.56721
437.027	568.18877
437.241	827.12091
437.454	563.91995
437.668	815.61237
437.881	854.64137
438.095	716.74923
438.308	769.04505
438.521	973.58225
438.735	759.70988
438.948	765.86289
439.161	737.42243
439.375	731.90138
439.588	799.72011
439.801	789.47456
440.015	767.41865
440.228	878.5456
440.441	992.3492
440.654	1121.70653
440.868	1022.06178
441.081	649.11811
441.294	875.3029
441.507	864.65631
441.721	675.01002
441.934	842.93016
442.147	670.96797
442.36	756.59759
442.573	818.01324
442.786	636.12901
443	902.22249
443.213	758.36597
443.426	791.52391
443.639	962.82386
443.852	814.55312
444.065	955.93121
444.278	863.95112
444.491	897.71381
444.704	809.96262
444.917	913.63257
445.13	843.98856
445.343	756.10243
445.556	1121.63649
445.769	1131.99996
445.982	885.03011
446.195	965.07424
446.408	882.06994
446.621	1046.55877
446.834	815.11806
447.047	825.77962
447.26	793.92645
447.473	864.37423
447.686	877.06527
447.899	848.92735
448.111	987.42994
448.324	944.39369
448.537	836.72023
448.75	788.41451
448.963	820.34334
449.176	1032.45213
449.388	975.05864
449.601	862.25862
449.814	830.22686
450.027	860.84814
450.239	874.24543
450.452	829.16805
450.665	688.05471
450.878	800.70917
451.09	890.45647
451.303	851.46703
451.516	788.06115
451.728	970.34803
451.941	633.36017
452.154	994.66805
452.366	911.94241
452.579	742.80106
452.792	1008.92934
453.004	912.15369
453.217	790.11058
453.429	837.84939
453.642	777.1759
453.854	972.1761
454.067	1059.88859
454.28	1121.77656
454.492	649.68582
454.705	776.75173
454.917	750.37216
455.13	1066.90241
455.342	933.27482
455.555	680.68225
455.767	1140.47076
455.979	873.39944
456.192	982.93177
456.404	739.97031
456.617	896.79792
456.829	760.62937
457.041	952.20302
457.254	938.7643
457.466	770.52996
457.679	833.40312
457.891	1034.13678
458.103	897.78426
458.315	881.50607
458.528	753.98022
458.74	845.18805
458.952	887.42627
459.165	827.47388
459.377	705.55775
459.589	584.83174
459.801	852.10192
460.014	875.09141
460.226	836.01449
460.438	786.64767
460.65	644.78898
460.862	864.93838
461.075	796.04619
461.287	720.5025
461.499	560.36216
461.711	607.29318
461.923	771.30774
462.135	892.85226
462.347	764.02418
462.559	808.62067
462.771	825.92081
462.983	694.22079
463.196	870.15627
463.408	933.62673
463.62	882.06994
463.832	1002.11551
464.044	925.03904
464.256	945.51946
464.468	781.27594
464.68	895.3888
464.891	907.71668
465.103	738.20097
465.315	1018.19978
465.527	718.37806
465.739	654.22717
465.951	736.28998
466.163	789.75724
466.375	655.93001
466.587	936.44193
466.799	668.84037
467.01	717.03251
467.222	743.93329
467.434	670.54246
467.646	717.81152
467.858	806.64297
468.069	771.80269
468.281	619.65452
468.493	515.35721
468.705	637.54883
468.916	699.03947
469.128	579.78287
469.34	635.0641
469.551	643.36947
469.763	455.44007
469.975	623.41883
470.186	667.63467
470.398	596.84629
470.61	614.39798
470.821	513.71815
471.033	615.67667
471.245	846.6697
471.456	515.28594
471.668	704.35338
471.879	596.56198
472.091	797.24732
472.302	837.0731
472.514	834.74412
472.725	718.73214
472.937	581.20516
473.148	556.23463
473.36	692.8034
473.571	738.48407
473.783	636.55496
473.994	689.18878
474.206	613.26131
474.417	598.19676
474.629	747.1175
474.84	800.42658
475.051	873.68144
475.263	559.9352
475.474	679.47699
475.685	758.29524
475.897	641.80794
476.108	898.48878
476.319	574.59094
476.531	648.40846
476.742	838.69624
476.953	855.48781
477.165	1043.96242
477.376	703.50321
477.587	750.7259
477.798	782.97237
478.01	609.42478
478.221	792.44255
478.432	810.10388
478.643	755.60726
478.854	642.65969
479.065	1098.9393
479.277	952.34371
479.488	855.06459
479.699	956.84562
479.91	808.40878
480.121	936.93457
480.332	860.56604
480.543	943.05679
480.754	637.61982
480.965	785.3755
481.176	887.99004
481.387	1075.45754
481.598	876.57181
481.809	1135.15047
482.02	1672.2484
482.231	3645.57757
482.442	7443.79861
482.653	13799.82499
482.864	20812.42802
483.075	30989.41109
483.286	42647.19245
483.497	56821.82771
483.708	63137.14833
483.919	63137.14833
484.13	63137.14833
484.341	63137.14833
484.551	63137.14833
484.762	63137.14833
484.973	63137.14833
485.184	63137.14833
485.395	44845.65753
485.605	11601.73996
485.816	5796.02924
486.027	3072.18607
486.238	2308.86092
486.449	2285.06376
486.659	1841.5232
486.87	1590.09464
487.081	1515.63838
487.291	1442.93709
487.502	1255.9423
487.713	1156.91711
487.923	1207.26369
488.134	1068.16476
488.345	1429.9398
488.555	1244.98245
488.766	1063.04497
488.976	1300.51967
489.187	1149.35964
489.398	1197.05963
489.608	1252.94085
489.819	1033.64543
490.029	943.26788
490.24	1281.62024
490.45	1204.74786
490.661	1155.02788
490.871	1013.003
491.082	864.2332
491.292	894.96606
491.503	1099.07945
491.713	1074.19543
491.924	1035.89154
492.134	971.33239
492.344	975.90227
492.555	1035.18965
492.765	1159.15609
492.975	1118.97516
493.186	1164.54311
493.396	1173.49653
493.607	807.63183
493.817	1164.68302
494.027	955.79053
494.237	918.28008
494.448	916.02682
494.658	1077.56097
494.868	816.45976
495.078	1038.27789
495.289	1214.81025
495.499	976.60528
495.709	844.97638
495.919	945.4491
496.129	976.25378
496.34	807.7731
496.55	733.67105
496.76	1015.95261
496.97	1071.03996
497.18	910.88603
497.39	861.48286
497.6	1085.76323
497.81	1136.90064
498.021	1119.18527
498.231	1164.89289
498.441	981.45568
498.651	908.20971
498.861	724.18455
499.071	938.7643
499.281	1100.62103
499.491	928.20687
499.701	975.90227
499.911	959.65903
500.121	943.05679
500.331	1047.33062
500.54	1248.54298
500.75	1026.34464
500.96	949.45939
501.17	865.78457
501.38	956.14223
501.59	1064.65813
501.8	881.43558
502.01	721.21062
502.219	946.71555
502.429	1088.14647
502.639	1172.937
502.849	1056.17074
503.059	916.51973
503.268	949.45939
503.478	857.1101
503.688	1030.06541
503.898	926.02462
504.107	900.88404
504.317	1220.46924
504.527	1049.71625
504.736	1047.68146
504.946	898.55923
505.156	1037.01455
505.365	880.44878
505.575	897.92517
505.785	927.15096
505.994	1069.4972
506.204	856.2637
506.413	886.86248
506.623	705.06184
506.832	916.51973
507.042	950.0222
507.251	1009.70197
507.461	974.77743
507.67	940.38284
507.88	839.96647
508.089	907.29408
508.299	944.81586
508.508	927.15096
508.718	720.07762
508.927	806.14852
509.137	1080.92621
509.346	1035.96173
509.555	831.07389
509.765	830.22686
509.974	1503.84191
510.184	1019.74463
510.393	857.74489
510.602	877.20626
510.812	1068.93618
511.021	916.94222
511.23	1190.13897
511.439	794.56238
511.649	843.84745
511.858	964.44133
512.067	942.91606
512.276	1002.39652
512.486	1577.8321
512.695	908.49144
512.904	727.08741
513.113	904.6175
513.322	923.20861
513.531	939.11617
513.741	1033.71562
513.95	728.36177
514.159	945.58982
514.368	768.26722
514.577	853.4422
514.786	789.54523
514.995	833.61486
515.204	906.02625
515.413	758.6489
515.622	784.66871
515.831	834.67354
516.04	824.65007
516.249	670.25878
516.458	784.95143
516.667	904.82881
516.876	1006.18991
517.085	836.43794
517.294	1002.39652
517.503	831.28565
517.712	867.54742
517.921	910.60432
518.13	963.87874
518.339	971.19177
518.547	1221.79654
518.756	779.93288
518.965	851.53757
519.174	879.53245
519.383	880.8717
519.591	737.84709
519.8	661.32176
520.009	863.8806
520.218	784.88075
520.426	854.64137
520.635	968.37924
520.844	903.77222
521.053	942.00131
521.261	996.49493
521.47	923.13821
521.679	946.22305
521.887	863.8806
522.096	820.62576
522.304	734.16654
522.513	713.27885
522.722	728.50336
522.93	980.68247
523.139	885.3825
523.347	731.61822
523.556	706.9746
523.764	813.98816
523.973	791.80657
524.182	720.07762
524.39	911.73114
524.598	730.62716
524.807	653.16285
525.015	846.38749
525.224	880.66024
525.432	798.51906
525.641	635.27708
525.849	823.44989
526.057	861.13024
526.266	969.99647
526.474	706.76207
526.683	788.69719
526.891	946.71555
527.099	794.49173
527.308	839.4725
527.516	679.90238
527.724	893.1341
527.932	704.28253
528.141	970.2074
528.349	1083.23965
528.557	852.03137
528.765	730.41479
528.974	662.10208
529.182	786.50632
529.39	839.54306
529.598	716.11184
529.806	633.43117
530.015	893.1341
530.223	707.04544
530.431	691.66945
530.639	635.41907
530.847	737.13933
531.055	809.82137
531.263	838.41396
531.471	596.91737
531.679	591.8704
531.887	825.42664
532.095	880.58976
532.303	983.21292
532.511	773.21677
532.719	756.52685
532.927	807.70246
533.135	878.26363
533.343	1027.53813
533.551	883.05669
533.759	811.58702
533.967	993.19244
534.175	880.8717
534.383	1010.68528
534.591	996.77598
534.798	951.71059
535.006	753.41427
535.214	793.07851
535.422	714.27043
535.63	915.60431
535.837	692.87427
536.045	712.78306
536.253	796.75274
536.461	824.15588
536.668	842.50679
536.876	913.13961
537.084	1061.22131
537.292	894.47285
537.499	1038.76918
537.707	903.70178
537.915	988.06246
538.122	1087.58572
538.33	1011.3174
538.538	920.11076
538.745	960.01069
538.953	1057.71404
539.16	946.15269
539.368	855.34674
539.575	755.39504
539.783	858.52073
539.99	1120.30585
540.198	863.45748
540.406	864.16268
540.613	819.56666
540.82	800.77982
541.028	908.6323
541.235	947.27841
541.443	1054.69753
541.65	1215.998
541.858	993.40324
542.065	866.06663
542.272	786.71835
542.48	1221.51711
542.687	787.99047
542.895	1008.5079
543.102	841.7306
543.309	939.46802
543.516	976.25378
543.724	947.27841
543.931	830.72097
544.138	1022.06178
544.346	854.92352
544.553	916.44931
544.76	914.26635
544.967	855.98156
545.174	936.2308
545.382	882.98621
545.589	945.58982
545.796	1049.9969
546.003	719.93599
546.21	941.79021
546.417	1170.48896
546.624	991.15458
546.832	936.58269
547.039	939.39765
547.246	1047.68146
547.453	947.91161
547.66	746.26841
547.867	971.75425
548.074	912.29453
548.281	832.90905
548.488	832.97963
548.695	823.30869
548.902	895.81154
549.109	827.96802
549.316	692.16556
549.523	724.60937
549.73	813.63507
549.936	916.87181
550.143	768.05508
550.35	754.19244
550.557	759.92207
550.764	763.95346
550.971	940.94579
551.178	814.20002
551.384	968.94176
551.591	991.22486
551.798	986.0946
552.005	831.56798
552.211	938.34207
552.418	843.42409
552.625	666.28707
552.832	924.96864
553.038	904.96969
553.245	950.51466
553.452	1000.49968
553.658	825.14426
553.865	803.04043
554.072	912.7875
554.278	904.75838
554.485	1226.40684
554.691	1066.76215
554.898	806.64297
555.105	999.37558
555.311	884.60725
555.518	1061.92273
555.724	1000.28892
555.931	733.67105
556.137	750.7259
556.344	917.15347
556.55	902.78604
556.757	909.12531
556.963	897.78426
557.17	938.69393
557.376	963.45679
557.582	1121.70653
557.789	830.86214
557.995	781.98279
558.202	812.08139
558.408	882.42235
558.614	765.01427
558.821	927.99569
559.027	1016.72509
559.233	932.5006
559.439	1161.53486
559.646	946.43412
559.852	1062.41371
560.058	1042.13785
560.264	1012.23044
560.471	895.3888
560.677	1059.46772
560.883	1061.85259
561.089	1070.82959
561.295	903.34957
561.502	963.31614
561.708	850.05612
561.914	1002.04526
562.12	987.35966
562.326	1057.85434
562.532	1021.64049
562.738	1057.71404
562.944	882.84524
563.15	961.20631
563.356	795.90488
563.562	949.45939
563.768	1019.60419
563.974	779.7915
564.18	998.46223
