Data from deut_45ms_89_SR4014911__0__16-19-33-294.txt Node

Date: Sun Jul 13 16:19:33 EDT 2025
User: cryst
Spectrometer: SR401491
Trigger mode: 0
Integration Time (sec): 4.500000E-2
Scans to average: 89
Electric dark correction enabled: true
Nonlinearity correction enabled: true
Boxcar width: 0
XAxis mode: Wavelengths
Number of Pixels in Spectrum: 3648
>>>>>Begin Spectral Data<<<<<
344.912	-86.74918
345.129	-59.42869
345.347	-62.24769
345.565	-51.62288
345.783	25.90425
346.001	18.61024
346.219	9.13847
346.437	17.11942
346.654	45.21091
346.872	21.79932
347.09	8.51505
347.308	43.58729
347.526	16.33732
347.743	3.56383
347.961	49.76383
348.179	35.67533
348.397	33.13519
348.614	72.39494
348.832	67.6263
349.05	79.21105
349.268	65.72348
349.485	71.61445
349.703	59.47741
349.921	106.98211
350.138	77.47975
350.356	87.32962
350.574	45.22311
350.791	71.95592
351.009	75.34595
351.227	74.22412
351.444	60.81946
351.662	77.7236
351.879	61.88086
352.097	80.79595
352.314	62.57623
352.532	74.11437
352.75	67.30917
352.967	74.2729
353.185	81.63712
353.402	70.0778
353.62	64.38168
353.837	94.49534
354.055	78.88187
354.272	96.32303
354.49	115.83512
354.707	113.49732
354.925	62.45424
355.142	84.80654
355.359	90.07183
355.577	98.13841
355.794	88.47529
356.012	110.246
356.229	69.55337
356.446	63.71075
356.664	76.61406
356.881	101.34245
357.099	75.58983
357.316	75.22402
357.533	87.4515
357.751	74.54116
357.968	135.52798
358.185	109.1865
358.402	78.62584
358.62	108.88203
358.837	90.54712
359.054	72.80956
359.272	65.11358
359.489	73.29735
359.706	82.58799
359.923	101.89064
360.141	94.27601
360.358	96.96879
360.575	93.32556
360.792	96.74947
361.009	73.65099
361.226	81.7956
361.444	108.34617
361.661	86.8299
361.878	85.53789
362.095	69.99243
362.312	105.03333
362.529	93.43523
362.746	92.95999
362.963	61.66126
363.181	77.2237
363.398	86.34235
363.615	114.59319
363.832	58.98937
364.049	59.17239
364.266	128.15394
364.483	91.57079
364.7	76.11414
364.917	56.31722
365.134	98.77194
365.351	83.67291
365.568	102.45099
365.785	78.10157
366.002	80.57651
366.219	72.94371
366.436	109.73452
366.652	95.57979
366.869	95.96969
367.086	100.84299
367.303	68.7728
367.52	75.68737
367.737	116.21255
367.954	97.52924
368.171	74.99234
368.387	119.24404
368.604	89.70622
368.821	85.68416
369.038	69.84608
369.255	80.63746
369.471	73.61441
369.688	103.20623
369.905	109.2961
370.122	86.08639
370.339	87.85371
370.555	67.22379
370.772	80.97881
370.989	124.63658
371.205	67.54092
371.422	98.85722
371.639	78.04061
371.855	122.31171
372.072	81.99065
372.289	65.72348
372.505	112.64495
372.722	65.28435
372.939	93.08185
373.155	107.83466
373.372	86.01326
373.589	91.5586
373.805	77.65045
374.022	69.84608
374.238	75.38253
374.455	88.32903
374.671	103.21841
374.888	96.33522
375.104	61.40506
375.321	61.78326
375.537	86.06201
375.754	93.5449
375.97	90.71773
376.187	113.88697
376.403	87.09804
376.62	74.33387
376.836	73.6266
377.053	79.5768
377.269	82.53923
377.486	61.24646
377.702	51.7288
377.918	55.63389
378.135	84.31896
378.351	97.9313
378.568	83.22188
378.784	77.46756
379	105.39874
379.217	87.37837
379.433	71.04127
379.649	109.28392
379.865	86.93959
380.082	105.80068
380.298	58.28171
380.514	107.37185
380.731	72.29738
380.947	66.29678
381.163	93.42304
381.379	76.26046
381.596	90.6568
381.812	105.76414
382.028	107.32313
382.244	79.06475
382.46	79.589
382.676	112.6206
382.893	82.64894
383.109	80.57651
383.325	66.84567
383.541	96.26211
383.757	59.48961
383.973	86.36673
384.189	125.76851
384.405	86.91521
384.622	79.19886
384.838	100.73335
385.054	98.30898
385.27	101.25718
385.486	89.60872
385.702	62.06385
385.918	89.32841
386.134	87.78058
386.35	105.65452
386.566	106.04428
386.782	113.37556
386.998	102.35354
387.214	94.72686
387.43	91.04677
387.646	118.7449
387.861	97.65108
388.077	92.48474
388.293	90.42525
388.509	103.37676
388.725	86.28141
388.941	101.61045
389.157	79.50365
389.373	103.90054
389.588	94.34912
389.804	100.67244
390.02	122.73775
390.236	82.36856
390.452	76.04098
390.668	74.22412
390.883	121.99522
391.099	110.39213
391.315	105.15513
391.531	84.02641
391.746	80.162
391.962	104.93589
392.178	98.54046
392.393	96.2743
392.609	127.1073
392.825	94.94618
393.041	76.63845
393.256	100.67244
393.472	116.28561
393.687	113.33903
393.903	121.26484
394.119	99.11307
394.334	95.3361
394.55	125.23298
394.766	94.19072
394.981	129.56563
395.197	115.65248
395.412	122.66471
395.628	117.73443
395.843	134.0801
396.059	174.34923
396.274	122.03174
396.49	153.34655
396.705	111.43941
396.921	76.93108
397.136	120.20577
397.352	105.27694
397.567	102.69462
397.783	88.3656
397.998	110.01462
398.214	101.74445
398.429	84.48961
398.644	141.86614
398.86	103.10878
399.075	118.20923
399.29	97.06626
399.506	82.16132
399.721	99.1618
399.936	100.41661
400.152	82.4417
400.367	88.67029
400.582	98.2968
400.798	117.38136
401.013	85.35505
401.228	111.52466
401.444	107.14044
401.659	100.86735
401.874	133.90976
402.089	102.75552
402.304	114.4349
402.52	98.13841
402.735	106.86031
402.95	78.27226
403.165	110.70876
403.38	123.71152
403.596	101.33027
403.811	121.93435
404.026	140.96599
404.241	92.53349
404.456	108.8455
404.671	129.21271
404.886	108.01734
405.101	91.26613
405.316	122.70123
405.532	123.04206
405.747	117.15004
405.962	124.75829
406.177	126.4014
406.392	87.63432
406.607	128.96932
406.822	121.16746
407.037	142.14591
407.252	160.83543
407.467	152.27654
407.682	142.88789
407.896	188.54869
408.111	161.55261
408.326	174.81092
408.541	204.44016
408.756	224.38591
408.971	244.05102
409.186	235.03246
409.401	204.84067
409.616	134.10444
409.83	95.29954
410.045	98.68666
410.26	89.87683
410.475	79.93036
410.69	106.58018
410.905	105.71542
411.119	81.47864
411.334	105.61798
411.549	93.17933
411.764	132.37661
411.978	122.05608
412.193	115.25069
412.408	81.0032
412.623	82.11256
412.837	125.37903
413.052	110.51391
413.267	100.1486
413.481	95.94532
413.696	98.49173
413.911	91.57079
414.125	101.43991
414.34	93.17933
414.554	84.87968
414.769	119.15882
414.984	100.96481
415.198	84.11174
415.413	74.74846
415.627	100.59934
415.842	83.34378
416.056	120.86313
416.271	90.51056
416.485	113.83826
416.7	121.59352
416.914	97.44395
417.129	81.05196
417.343	117.99009
417.558	88.59716
417.772	117.16221
417.987	106.98211
418.201	106.53147
418.415	71.59006
418.63	88.37778
418.844	105.32566
419.059	111.84127
419.273	101.06227
419.487	129.2979
419.702	107.1648
419.916	139.6887
420.13	90.82741
420.345	97.95566
420.559	97.72418
420.773	95.45794
420.988	93.7886
421.202	136.25798
421.416	96.16464
421.63	111.20804
421.845	101.20845
422.059	100.66026
422.273	71.96811
422.487	119.46317
422.701	122.31171
422.916	130.98941
423.13	106.71416
423.344	95.82348
423.558	84.37991
423.772	82.01504
423.986	107.70069
424.201	112.0361
424.415	125.51292
424.629	103.21841
424.843	97.32212
425.057	115.33592
425.271	77.96745
425.485	76.77257
425.699	80.93005
425.913	117.91704
426.127	115.81077
426.341	93.1184
426.555	97.11499
426.769	118.92751
426.983	139.06829
427.197	120.61966
427.411	101.245
427.625	142.38919
427.839	91.69265
428.053	99.96586
428.267	76.24827
428.481	124.18623
428.695	98.23588
428.908	79.7353
429.122	107.46928
429.336	108.57757
429.55	100.68462
429.764	133.44739
429.978	165.1382
430.191	164.33604
430.405	207.87465
430.619	197.26644
430.833	256.96783
431.047	336.06326
431.26	445.73002
431.474	552.96564
431.688	612.74581
431.901	637.45009
432.115	775.18781
432.329	874.86106
432.543	928.18172
432.756	1140.73597
432.97	1175.75909
433.184	804.36846
433.397	359.23845
433.611	156.45906
433.824	136.13632
434.038	116.73609
434.252	99.07652
434.465	93.42304
434.679	97.4074
434.892	115.23851
435.106	73.59002
435.319	75.51666
435.533	113.86262
435.747	107.72504
435.96	81.52741
436.174	129.04234
436.387	120.5101
436.601	117.90487
436.814	126.13364
437.027	76.13853
437.241	109.53967
437.454	83.38035
437.668	122.94468
437.881	134.14094
438.095	96.79821
438.308	117.6979
438.521	145.24752
438.735	108.11477
438.948	123.49243
439.161	106.79942
439.375	113.96003
439.588	132.74165
439.801	119.76752
440.015	118.51359
440.228	132.76599
440.441	134.21394
440.654	148.70145
440.868	140.95383
441.081	100.44097
441.294	128.81111
441.507	122.79861
441.721	105.77632
441.934	127.48458
442.147	117.38136
442.36	107.9808
442.573	130.97724
442.786	83.89232
443	131.18411
443.213	112.64495
443.426	111.47595
443.639	148.75009
443.852	115.32374
444.065	137.5111
444.278	122.62819
444.491	126.15798
444.704	120.41272
444.917	126.85172
445.13	125.97542
445.343	113.72868
445.556	158.93909
445.769	168.24939
445.982	142.97304
446.195	134.61546
446.408	133.20403
446.621	140.85651
446.834	116.50476
447.047	109.92937
447.26	118.83012
447.473	117.52746
447.686	123.41939
447.899	101.57391
448.111	139.16561
448.324	119.97447
448.537	131.19628
448.75	114.90976
448.963	117.36918
449.176	141.46473
449.388	136.46481
449.601	131.537
449.814	112.66931
450.027	108.11477
450.239	125.29384
450.452	116.06645
450.665	110.83054
450.878	119.98664
451.09	119.64578
451.303	124.55138
451.516	118.4162
451.728	129.41959
451.941	96.63982
452.154	140.85651
452.366	135.34548
452.579	96.84695
452.792	149.44326
453.004	118.86664
453.217	112.10917
453.429	117.10134
453.642	102.049
453.854	141.05114
454.067	164.91943
454.28	154.20982
454.492	100.89172
454.705	99.00342
454.917	123.67501
455.13	153.50461
455.342	155.91196
455.555	88.18278
455.767	161.92942
455.979	111.30546
456.192	148.73793
456.404	102.74334
456.617	130.29578
456.829	105.73978
457.041	150.92681
457.254	124.42966
457.466	114.66625
457.679	113.29032
457.891	144.8948
458.103	123.43157
458.315	137.20695
458.528	110.42867
458.74	136.80546
458.952	124.90435
459.165	119.34143
459.377	92.36288
459.589	87.91465
459.801	128.42168
460.014	125.54943
460.226	124.10102
460.438	128.15394
460.65	97.73636
460.862	127.52109
461.075	123.00554
461.287	119.28056
461.499	76.80915
461.711	92.02167
461.923	101.34245
462.135	127.4359
462.347	98.17496
462.559	110.47738
462.771	117.22309
462.983	107.59107
463.196	121.41092
463.408	130.69736
463.62	139.84685
463.832	154.98795
464.044	131.07459
464.256	143.50823
464.468	98.24806
464.68	128.78677
464.891	122.98119
465.103	101.29373
465.315	126.49877
465.527	106.7507
465.739	84.75778
465.951	106.39749
466.163	102.17081
466.375	102.58498
466.587	136.98796
466.799	111.31764
467.01	102.23172
467.222	109.21085
467.434	91.11989
467.646	104.83845
467.858	114.71495
468.069	102.15863
468.281	90.47399
468.493	79.95474
468.705	89.3406
468.916	111.41506
469.128	76.30923
469.34	99.18616
469.551	86.09858
469.763	76.95546
469.975	103.55948
470.186	109.7467
470.398	98.68666
470.61	108.17567
470.821	75.21182
471.033	97.9313
471.245	118.64751
471.456	81.96627
471.668	107.05519
471.879	93.05747
472.091	118.48924
472.302	126.34055
472.514	120.30315
472.725	112.80325
472.937	96.96879
473.148	94.12979
473.36	100.13641
473.571	126.88823
473.783	94.67812
473.994	107.7494
474.206	93.58145
474.417	100.24606
474.629	112.54754
474.84	110.81836
475.051	138.50868
475.263	95.90877
475.474	97.28557
475.685	115.89599
475.897	102.00027
476.108	130.64868
476.319	72.45591
476.531	99.29581
476.742	121.16746
476.953	123.74804
477.165	149.94184
477.376	101.52518
477.587	92.33851
477.798	108.82114
478.01	90.02308
478.221	125.01389
478.432	104.6801
478.643	105.6667
478.854	92.97217
479.065	159.75356
479.277	125.05041
479.488	128.31215
479.699	130.2471
479.91	119.18317
480.121	141.85398
480.332	125.53726
480.543	115.29939
480.754	91.5586
480.965	107.95645
481.176	135.50365
481.387	147.41235
481.598	114.36184
481.809	144.57857
482.02	211.39365
482.231	429.74019
482.442	942.13113
482.653	1924.11379
482.864	3188.87969
483.075	4973.79295
483.286	7073.81058
483.497	9547.92132
483.708	11489.91395
483.919	13142.44914
484.13	14608.67884
484.341	16684.75219
484.551	19588.17787
484.762	22131.44375
484.973	22863.80716
485.184	15650.41528
485.395	5069.03679
485.605	1392.22351
485.816	621.46148
486.027	309.56881
486.238	233.55334
486.449	240.07545
486.659	192.13082
486.87	173.19498
487.081	175.13896
487.291	158.82968
487.502	145.78266
487.713	130.58784
487.923	151.57129
488.134	116.01775
488.345	187.41931
488.555	153.88153
488.766	117.18656
488.976	149.84455
489.187	143.73933
489.398	136.42831
489.608	146.28131
489.819	112.60842
490.029	117.06481
490.24	159.57122
490.45	162.08744
490.661	134.88314
490.871	144.93129
491.082	105.28912
491.292	121.35006
491.503	149.09059
491.713	149.07843
491.924	133.90976
492.134	128.373
492.344	126.97342
492.555	149.62566
492.765	138.18021
492.975	139.95633
493.186	151.21865
493.396	162.22114
493.607	108.32181
493.817	159.52259
494.027	120.5101
494.237	126.37706
494.448	128.81111
494.658	161.24872
494.868	120.30315
495.078	142.72977
495.289	162.52502
495.499	123.38288
495.709	95.81129
495.919	122.64037
496.129	124.21057
496.34	99.27144
496.55	90.94928
496.76	135.05348
496.97	137.20695
497.18	118.13619
497.39	112.35271
497.6	146.52455
497.81	147.65558
498.021	156.98183
498.231	144.23801
498.441	136.6473
498.651	125.732
498.861	100.57498
499.071	121.47179
499.281	147.7772
499.491	123.04206
499.701	137.37727
499.911	129.27356
500.121	122.12912
500.331	133.82458
500.54	180.53277
500.75	132.8755
500.96	146.31779
501.17	129.34658
501.38	141.82965
501.59	138.88581
501.8	130.51482
502.01	87.90246
502.219	132.8755
502.429	143.17982
502.639	155.30406
502.849	135.84432
503.059	133.13103
503.268	134.21394
503.478	128.22696
503.688	131.13543
503.898	124.98955
504.107	124.21057
504.317	171.72476
504.527	132.3036
504.736	133.02152
504.946	111.86562
505.156	148.1542
505.365	118.20923
505.575	128.47036
505.785	120.04751
505.994	144.7975
506.204	128.8963
506.413	132.52263
506.623	94.84871
506.832	116.30996
507.042	140.28478
507.251	141.75666
507.461	134.27478
507.67	130.89206
507.88	111.13498
508.089	129.63864
508.299	124.18623
508.508	131.5735
508.718	94.26383
508.927	104.6801
509.137	137.34077
509.346	141.90263
509.555	105.53272
509.765	123.12726
509.974	213.58977
510.184	149.27301
510.393	115.57943
510.602	130.5635
510.812	155.65665
511.021	135.11431
511.23	156.08217
511.439	117.51528
511.649	116.66304
511.858	138.54518
512.067	133.37438
512.276	141.47689
512.486	223.355
512.695	150.48905
512.904	96.43269
513.113	126.87606
513.322	126.57179
513.531	135.68615
513.741	135.92948
513.95	97.28557
514.159	116.99176
514.368	119.62143
514.577	127.37505
514.786	115.9447
514.995	111.67078
515.204	131.79253
515.413	93.60582
515.622	120.3762
515.831	113.18073
516.04	133.44739
516.249	101.73227
516.458	114.87324
516.667	128.64074
516.876	148.61632
517.085	120.70488
517.294	139.53056
517.503	108.15131
517.712	117.77095
517.921	119.8649
518.13	139.94417
518.339	135.17515
518.547	179.09938
518.756	107.83466
518.965	122.96902
519.174	122.23867
519.383	132.32794
519.591	100.29479
519.8	106.43403
520.009	125.34252
520.218	120.96052
520.426	105.38656
520.635	140.7592
520.844	124.61223
521.053	144.52992
521.261	141.11196
521.47	145.74617
521.679	105.61798
521.887	128.70158
522.096	119.21969
522.304	115.71336
522.513	107.17698
522.722	109.45442
522.93	134.56679
523.139	131.69519
523.347	109.30828
523.556	107.37185
523.764	106.16608
523.973	117.15004
524.182	104.46085
524.39	142.27971
524.598	92.18009
524.807	100.87954
525.015	119.49969
525.224	140.7592
525.432	117.6005
525.641	84.95281
525.849	114.11832
526.057	124.56355
526.266	149.74727
526.474	102.40226
526.683	99.53947
526.891	132.08458
527.099	114.64189
527.308	113.94785
527.516	99.2349
527.724	140.46725
527.932	98.38208
528.141	140.7592
528.349	153.61404
528.557	126.46225
528.765	109.77105
528.974	83.75824
529.182	101.80536
529.39	127.94705
529.598	89.4381
529.806	87.09804
530.015	132.0359
530.223	110.80618
530.431	106.7507
530.639	97.1881
530.847	94.4466
531.055	112.83978
531.263	118.90317
531.471	88.82873
531.679	88.90185
531.887	122.59168
532.095	120.86313
532.303	135.40632
532.511	108.86985
532.719	111.67078
532.927	102.13427
533.135	136.6473
533.343	147.04751
533.551	126.88823
533.759	117.58833
533.967	163.24215
534.175	121.99522
534.383	152.68996
534.591	157.22497
534.798	137.85174
535.006	103.88836
535.214	120.29098
535.422	88.49966
535.63	124.33229
535.837	103.74219
536.045	98.86941
536.253	116.44388
536.461	120.05968
536.668	114.26443
536.876	138.39919
537.084	144.57857
537.292	136.11198
537.499	145.34482
537.707	123.35853
537.915	136.67164
538.122	153.46813
538.33	137.55976
538.538	120.64401
538.745	147.85017
538.953	150.78089
539.16	132.98501
539.368	116.66304
539.575	109.23521
539.783	133.11886
539.99	152.31302
540.198	131.84121
540.406	116.56564
540.613	133.32571
540.82	99.52728
541.028	134.49379
541.235	110.76965
541.443	150.47689
541.65	165.83096
541.858	138.53301
542.065	125.99976
542.272	124.62441
542.48	166.46293
542.687	115.95687
542.895	149.4919
543.102	118.3188
543.309	131.95072
543.516	144.85831
543.724	118.52577
543.931	124.75829
544.138	123.85759
544.346	133.64207
544.553	121.43527
544.76	123.13943
544.967	116.0908
545.174	142.77842
545.382	108.7846
545.589	143.08251
545.796	141.06331
546.003	118.86664
546.21	124.68526
546.417	178.68636
546.624	141.06331
546.832	131.19628
547.039	120.64401
547.246	156.11864
547.453	119.56056
547.66	126.03627
547.867	135.79565
548.074	126.85172
548.281	111.8778
548.488	127.64279
548.695	117.44223
548.902	130.22276
549.109	120.41272
549.316	109.78323
549.523	100.50189
549.73	121.66655
549.936	121.75176
550.143	116.72391
550.35	104.741
550.557	101.87845
550.764	99.49074
550.971	128.0079
551.178	113.74085
551.384	138.14371
551.591	139.932
551.798	152.96962
552.005	111.73167
552.211	140.91733
552.418	125.36686
552.625	105.20386
552.832	129.7725
553.038	124.30794
553.245	121.0579
553.452	149.96616
553.658	105.28912
553.865	105.41092
554.072	124.64875
554.278	129.46827
554.485	167.93343
554.691	153.29791
554.898	114.32531
555.105	155.38917
555.311	124.66092
555.518	156.14296
555.724	147.15696
555.931	95.21425
556.137	103.49857
556.344	119.4023
556.55	131.35447
556.757	125.03824
556.963	113.86262
557.17	129.21271
557.376	130.34446
557.582	159.21869
557.789	114.58101
557.995	116.0421
558.202	118.64751
558.408	131.26929
558.614	101.29373
558.821	138.56951
559.027	140.60106
559.233	144.7002
559.439	161.91727
559.646	130.53916
559.852	145.45428
560.058	134.22611
560.264	151.19433
560.471	128.21479
560.677	141.2701
560.883	158.00302
561.089	154.65968
561.295	119.14665
561.502	125.51292
561.708	128.20262
561.914	147.7772
562.12	137.19478
562.326	148.77441
562.532	150.33097
562.738	150.02696
562.944	119.47534
563.15	127.49675
563.356	111.40288
563.562	121.03355
563.768	151.01193
563.974	106.45839
564.18	147.71639
564.386	124.44183
564.592	126.26752
564.798	126.20667
565.004	157.15203
565.21	96.94442
565.416	152.41029
565.622	131.15977
565.828	149.51622
566.034	154.25845
566.239	131.86555
566.445	164.85866
566.651	163.42447
566.857	185.12399
567.063	163.94711
567.268	183.59367
567.474	199.43938
567.68	186.53278
567.886	197.88556
568.091	197.46067
568.297	187.29787
568.503	201.91561
568.708	216.10115
568.914	222.50598
569.12	229.53992
