Data from deut_80ms_50_SR4014911__0__16-30-02-227.txt Node

Date: Sun Jul 13 16:30:02 EDT 2025
User: cryst
Spectrometer: SR401491
Trigger mode: 0
Integration Time (sec): 8.000000E-2
Scans to average: 50
Electric dark correction enabled: true
Nonlinearity correction enabled: true
Boxcar width: 0
XAxis mode: Wavelengths
Number of Pixels in Spectrum: 3648
>>>>>Begin Spectral Data<<<<<
344.912	-122.92878
345.129	-148.63847
345.347	-138.13263
345.565	-112.32428
345.783	55.28297
346.001	41.00862
346.219	21.18136
346.437	38.0746
346.654	88.77733
346.872	38.33541
347.09	-5.14741
347.308	70.28785
347.526	42.09522
347.743	14.98231
347.961	115.1443
348.179	69.54974
348.397	66.0109
348.614	112.41338
348.832	118.7201
349.05	131.82737
349.268	141.7674
349.485	131.80571
349.703	99.83895
349.921	169.83575
350.138	142.28704
350.356	149.3229
350.574	74.9114
350.791	122.7071
351.009	158.13143
351.227	133.4518
351.444	109.68219
351.662	128.38325
351.879	108.03467
352.097	124.67872
352.314	111.13452
352.532	140.55487
352.75	129.16309
352.967	138.71431
353.185	147.82928
353.402	112.76018
353.62	88.21328
353.837	150.01556
354.055	131.28587
354.272	161.29057
354.49	183.78366
354.707	174.68047
354.925	107.86124
355.142	129.07644
355.359	160.3169
355.577	161.78821
355.794	146.7469
356.012	196.08233
356.229	147.91587
356.446	117.22482
356.664	151.94194
356.881	184.95108
357.099	135.96407
357.316	143.91086
357.533	138.06467
357.751	130.28948
357.968	243.54081
358.185	184.38899
358.402	135.20608
358.62	190.83066
358.837	173.92354
359.054	114.14733
359.272	114.92757
359.489	130.18118
359.706	147.30974
359.923	166.39636
360.141	140.55487
360.358	151.01124
360.575	168.90565
360.792	143.30465
361.009	150.90301
361.226	137.89143
361.444	203.73116
361.661	157.52553
361.878	160.55491
362.095	150.9463
362.312	183.87014
362.529	182.7243
362.746	167.0886
362.963	113.15032
363.181	132.39052
363.398	145.23149
363.615	208.28922
363.832	106.66888
364.049	106.53881
364.266	211.74508
364.483	156.91961
364.7	135.57425
364.917	87.23702
365.134	160.57655
365.351	141.37766
365.568	155.36148
365.785	111.45966
366.002	111.50301
366.219	112.0449
366.436	155.85923
366.652	194.69927
366.869	135.76916
367.086	181.49192
367.303	112.93358
367.52	133.84165
367.737	192.62455
367.954	171.69588
368.171	142.02722
368.387	221.44083
368.604	155.96743
368.821	141.87566
369.038	128.53489
369.255	156.22712
369.471	105.21631
369.688	194.69927
369.905	189.18796
370.122	153.86819
370.339	171.63099
370.555	118.22168
370.772	128.03665
370.989	239.1826
371.205	130.44111
371.422	145.12325
371.639	132.88868
371.855	218.67712
372.072	144.47376
372.289	121.36372
372.505	203.75276
372.722	120.08528
372.939	148.88997
373.155	179.58921
373.372	126.19526
373.589	150.29695
373.805	139.14739
374.022	111.82815
374.238	102.24588
374.455	166.37473
374.671	181.51354
374.888	156.03235
375.104	101.61707
375.321	98.99322
375.537	144.12736
375.754	150.53505
375.97	140.03519
376.187	214.44467
376.403	140.94461
376.62	139.53716
376.836	137.28508
377.053	137.80481
377.269	130.50609
377.486	124.83038
377.702	91.33708
377.918	86.73803
378.135	154.40925
378.351	174.33444
378.568	140.98792
378.784	138.45445
379	161.83148
379.217	124.91704
379.433	118.41672
379.649	189.18796
379.865	124.13708
380.082	186.55079
380.298	108.57662
380.514	209.65001
380.731	163.6056
380.947	112.84688
381.163	164.1681
381.379	129.37971
381.596	145.55623
381.812	179.09188
382.028	167.78082
382.244	137.06853
382.46	110.87441
382.676	208.28922
382.893	152.50468
383.109	144.9717
383.325	123.22711
383.541	174.20468
383.757	78.42738
383.973	176.88626
384.189	188.60434
384.405	140.83635
384.622	143.283
384.838	168.84075
385.054	174.26956
385.27	206.2155
385.486	137.04687
385.702	109.29199
385.918	165.37961
386.134	149.66923
386.35	182.44323
386.566	185.01593
386.782	186.76696
386.998	184.10795
387.214	158.08815
387.43	176.02127
387.646	221.74309
387.861	195.82301
388.077	169.9439
388.293	168.92728
388.509	172.15007
388.725	160.61982
388.941	179.43785
389.157	141.09618
389.373	183.67556
389.588	176.06452
389.804	182.11893
390.02	206.60433
390.236	126.47689
390.452	139.49385
390.668	154.21447
390.883	217.64066
391.099	176.38889
391.315	185.55638
391.531	128.20995
391.746	148.69515
391.962	175.54551
392.178	158.69404
392.393	147.98081
392.609	226.2119
392.825	152.13674
393.041	128.88149
393.256	191.47906
393.472	188.60434
393.687	176.17264
393.903	207.31718
394.119	174.4642
394.334	182.98373
394.55	210.25479
394.766	146.57371
394.981	194.54799
395.197	203.16945
395.412	238.79421
395.628	212.45779
395.843	222.75781
396.059	294.71106
396.274	204.44408
396.49	273.25389
396.705	205.82666
396.921	122.96711
397.136	182.33513
397.352	187.93425
397.567	175.19949
397.783	152.22331
397.998	170.03042
398.214	169.90064
398.429	138.86589
398.644	242.28951
398.86	168.99217
399.075	199.45325
399.29	150.18872
399.506	152.2666
399.721	173.94516
399.936	173.53425
400.152	169.59782
400.367	176.23752
400.582	189.07988
400.798	216.97126
401.013	129.74795
401.228	196.34164
401.444	197.44371
401.659	184.8646
401.874	234.24105
402.089	193.46742
402.304	194.69927
402.52	178.3567
402.735	156.20548
402.95	138.77927
403.165	198.97789
403.38	228.54318
403.596	164.49262
403.811	213.45125
404.026	239.39837
404.241	161.93966
404.456	170.22509
404.671	241.81486
404.886	205.3514
405.101	163.2378
405.316	190.5929
405.532	234.43528
405.747	192.97034
405.962	200.98732
406.177	193.59709
406.392	167.95388
406.607	223.53502
406.822	197.09797
407.037	233.39939
407.252	293.54812
407.467	274.43919
407.682	263.05831
407.896	293.95731
408.111	277.67157
408.326	295.68013
408.541	394.48712
408.756	415.79212
408.971	431.05898
409.186	432.81675
409.401	391.76122
409.616	232.32031
409.83	179.78381
410.045	164.49262
410.26	158.04488
410.475	151.61728
410.69	178.05397
410.905	192.79745
411.119	117.20315
411.334	163.93012
411.549	160.42509
411.764	212.63057
411.978	220.12378
412.193	176.86464
412.408	145.51293
412.623	130.98263
412.837	225.13254
413.052	207.7492
413.267	211.91786
413.481	161.68003
413.696	154.88537
413.911	145.88096
414.125	152.41811
414.34	144.75521
414.554	157.8934
414.769	205.02736
414.984	160.27363
415.198	132.2389
415.413	138.56273
415.627	192.73261
415.842	167.17513
416.056	210.94595
416.271	149.92898
416.485	181.42706
416.7	190.39837
416.914	168.08366
417.129	141.35601
417.343	190.03093
417.558	165.94207
417.772	202.17563
417.987	162.95655
418.201	153.88983
418.415	120.88702
418.63	186.55079
418.844	162.28584
419.059	199.45325
419.273	176.43214
419.487	239.37679
419.702	182.16217
419.916	256.61145
420.13	158.99699
420.345	143.97581
420.559	150.72985
420.773	157.50389
420.988	170.00879
421.202	231.21959
421.416	155.55625
421.63	175.459
421.845	180.41085
422.059	166.85065
422.273	134.51305
422.487	174.20468
422.701	231.19801
422.916	236.09693
423.13	164.14647
423.344	155.70774
423.558	156.33532
423.772	150.10214
423.986	169.12195
424.201	158.73732
424.415	245.6118
424.629	208.09481
424.843	192.66777
425.057	202.56452
425.271	128.16663
425.485	130.91764
425.699	131.35085
425.913	214.76861
426.127	180.34598
426.341	155.66446
426.555	144.66861
426.769	204.42247
426.983	212.82494
427.197	200.38235
427.411	195.32597
427.625	233.83101
427.839	176.36727
428.053	174.26956
428.267	140.35999
428.481	203.25587
428.695	137.39336
428.908	135.92076
429.122	199.71254
429.336	187.04798
429.55	158.32618
429.764	221.0522
429.978	264.35181
430.191	269.50371
430.405	373.98316
430.619	342.3515
430.833	488.02795
431.047	598.1797
431.26	871.03477
431.474	1064.52206
431.688	1174.68271
431.901	1250.64843
432.115	1509.33528
432.329	1713.25661
432.543	1864.7212
432.756	2275.01982
432.97	2343.66976
433.184	1612.80726
433.397	677.55272
433.611	269.07263
433.824	231.65125
434.038	201.6571
434.252	187.35061
434.465	181.68651
434.679	161.93966
434.892	200.68484
435.106	115.70779
435.319	161.37712
435.533	216.73373
435.747	178.03234
435.96	123.18377
436.174	229.40657
436.387	217.14401
436.601	195.32597
436.814	214.83339
437.027	144.47376
437.241	205.02736
437.454	149.38783
437.668	220.66356
437.881	225.26207
438.095	185.66447
438.308	201.37623
438.521	244.89992
438.735	190.11739
438.948	188.71242
439.161	183.58909
439.375	164.23301
439.588	226.90267
439.801	205.76185
440.015	183.07021
440.228	234.08999
440.441	257.06429
440.654	269.71925
440.868	256.56833
441.081	153.60848
441.294	230.42101
441.507	212.24182
441.721	184.15118
441.934	206.2803
442.147	161.09584
442.36	170.63605
442.573	214.98456
442.786	152.95919
443	220.62038
443.213	176.45377
443.426	187.91264
443.639	250.40041
443.852	191.91133
444.065	244.40374
444.278	220.36129
444.491	213.25688
444.704	198.86985
444.917	211.93946
445.13	209.45562
445.343	187.89102
445.556	278.55503
445.769	287.38811
445.982	231.93182
446.195	260.12614
446.408	222.58509
446.621	259.39305
446.834	195.52047
447.047	206.51792
447.26	189.8364
447.473	210.47078
447.686	210.64357
447.899	205.02736
448.111	233.6152
448.324	228.26257
448.537	216.06431
448.75	209.43402
448.963	187.1993
449.176	247.20809
449.388	234.00366
449.601	223.88044
449.814	190.24708
450.027	196.75222
450.239	222.26125
450.452	204.6169
450.665	179.80543
450.878	210.57877
451.09	214.40148
451.303	205.3082
451.516	197.94071
451.728	233.52888
451.941	156.65993
452.154	249.25725
452.366	245.20193
452.579	172.7124
452.792	267.11111
453.004	233.67995
453.217	190.2903
453.429	203.60153
453.642	194.20221
453.854	242.97989
454.067	289.02516
454.28	291.20058
454.492	149.43113
454.705	180.32436
454.917	193.68354
455.13	282.88573
455.342	255.64107
455.555	160.29526
455.767	280.30032
455.979	210.49238
456.192	239.76517
456.404	180.82166
456.617	226.77315
456.829	196.75222
457.041	240.69294
457.254	212.24182
457.466	181.90272
457.679	212.28502
457.891	243.10933
458.103	229.88142
458.315	210.0172
458.528	184.38899
458.74	192.17068
458.952	212.88974
459.165	205.52422
459.377	174.22631
459.589	149.3229
459.801	223.98838
460.014	220.90106
460.226	212.3714
460.438	220.0806
460.65	159.66777
460.862	228.58635
461.075	202.67254
461.287	180.62707
461.499	143.84591
461.711	130.41945
461.923	191.78165
462.135	218.76349
462.347	179.22162
462.559	200.53359
462.771	217.94296
462.983	188.25849
463.196	214.2935
463.408	229.4929
463.62	187.56678
463.832	248.5886
464.044	221.67832
464.256	235.34164
464.468	172.58264
464.68	214.66063
464.891	225.39159
465.103	172.88543
465.315	241.70699
465.527	182.96212
465.739	150.3186
465.951	191.04679
466.163	198.37287
466.375	173.05845
466.587	225.08937
466.799	165.98534
467.01	182.81078
467.222	191.78165
467.434	150.36189
467.646	171.04701
467.858	178.6378
468.069	196.23359
468.281	144.19231
468.493	146.0325
468.705	161.22566
468.916	187.37223
469.128	127.27845
469.34	164.44935
469.551	144.82016
469.763	109.48709
469.975	152.7644
470.186	159.66777
470.398	153.63012
470.61	135.14111
470.821	125.15536
471.033	173.49099
471.245	207.92201
471.456	145.85932
471.668	181.0595
471.879	157.24421
472.091	208.05161
472.302	224.22585
472.514	212.00425
472.725	165.94207
472.937	144.25726
473.148	144.86346
473.36	178.09721
473.571	187.17768
473.783	148.21893
473.994	190.67936
474.206	159.94906
474.417	156.78977
474.629	184.73489
474.84	211.80987
475.051	231.99657
475.263	150.96795
475.474	157.20093
475.685	172.10682
475.897	164.36281
476.108	223.51343
476.319	145.49128
476.531	155.25327
476.742	212.30661
476.953	207.55479
477.165	272.37027
477.376	174.03167
477.587	166.52616
477.798	193.57548
478.01	147.15821
478.221	219.2817
478.432	189.55541
478.643	183.78366
478.854	157.26585
479.065	289.24056
479.277	226.92426
479.488	217.07923
479.699	230.4426
479.91	201.44105
480.121	238.039
480.332	226.16873
480.543	234.17631
480.754	168.60281
480.965	182.59457
481.176	202.91019
481.387	275.60289
481.598	231.60809
481.809	268.33977
482.02	404.6373
482.231	824.28014
482.442	1817.0407
482.653	3744.85929
482.864	5944.85009
483.075	9049.28207
483.286	12638.36823
483.497	16932.23375
483.708	20192.26139
483.919	23078.56516
484.13	25602.02264
484.341	29252.78267
484.551	34321.56013
484.762	38938.58204
484.973	40433.14652
485.184	27735.38991
485.395	9222.59416
485.605	2745.79614
485.816	1157.39011
486.027	576.93523
486.238	404.29401
486.449	459.68517
486.659	337.87908
486.87	304.72328
487.081	318.17516
487.291	285.14778
487.502	269.1804
487.713	226.16873
487.923	268.01644
488.134	217.98615
488.345	330.84655
488.555	265.36502
488.766	203.34228
488.976	271.20644
489.187	238.14689
489.398	234.67266
489.608	266.98177
489.819	218.65553
490.029	206.75554
490.24	284.22144
490.45	262.0019
490.661	253.54923
490.871	226.98902
491.082	188.43142
491.292	203.86078
491.503	232.57929
491.713	253.03164
491.924	234.15473
492.134	230.87427
492.344	222.26125
492.555	244.98621
492.765	250.50825
492.975	246.71196
493.186	269.95635
493.396	277.3268
493.607	172.56101
493.817	271.37886
494.027	229.3634
494.237	213.1057
494.448	214.66063
494.658	245.26665
494.868	185.72933
495.078	242.67785
495.289	274.11593
495.499	222.49874
495.709	183.80528
495.919	228.50001
496.129	212.54418
496.34	182.68105
496.55	165.76901
496.76	242.93674
496.97	227.59342
497.18	216.90648
497.39	190.61452
497.6	242.52683
497.81	273.01682
498.021	256.82709
498.231	264.24402
498.441	225.15413
498.651	208.54842
498.861	174.22631
499.071	223.40548
499.281	263.83442
499.491	232.25556
499.701	246.97081
499.911	231.50017
500.121	228.88854
500.331	244.23116
500.54	305.15383
500.75	236.07535
500.96	241.53439
501.17	189.44734
501.38	223.96679
501.59	258.09932
501.8	206.30191
502.01	141.96227
502.219	212.28502
502.429	265.96862
502.639	282.84264
502.849	254.02368
503.059	212.50099
503.268	223.81567
503.478	214.94137
503.688	235.55744
503.898	205.74025
504.107	214.2935
504.317	295.09869
504.527	242.41896
504.736	242.89359
504.946	219.73513
505.156	259.73803
505.365	208.07321
505.575	201.48426
505.785	219.21693
505.994	248.48075
506.204	210.62197
506.413	227.24805
506.623	162.99982
506.832	226.51412
507.042	241.46966
507.251	247.61794
507.461	218.50438
507.67	227.57184
507.88	178.52968
508.089	221.16015
508.299	234.69424
508.508	219.75672
508.718	152.43975
508.927	196.57935
509.137	258.01307
509.346	257.92681
509.555	182.39999
509.765	185.25373
509.974	372.13604
510.184	240.36931
510.393	188.88534
510.602	204.31446
510.812	258.59525
511.021	213.47285
511.23	295.14176
511.439	194.26704
511.649	198.74021
511.858	234.50002
512.067	230.5721
512.276	239.00998
512.486	432.58096
512.695	220.27492
512.904	166.87228
513.113	217.14401
513.322	219.67036
513.531	241.27549
513.741	257.25836
513.95	179.58921
514.159	240.23985
514.368	173.75052
514.577	210.96754
514.786	185.77256
514.995	200.38235
515.204	209.15322
515.413	164.14647
515.622	201.89476
515.831	210.42758
516.04	205.91307
516.249	158.19635
516.458	186.24815
516.667	216.453
516.876	263.38169
517.085	196.81705
517.294	239.1826
517.503	205.3514
517.712	210.64357
517.921	226.10397
518.13	228.3705
518.339	237.0464
518.547	323.29601
518.756	172.21496
518.965	209.06682
519.174	215.20051
519.383	219.8215
519.591	162.45893
519.8	160.98765
520.009	217.33835
520.218	215.33008
520.426	210.51397
520.635	241.59911
520.844	228.47843
521.053	251.32783
521.261	269.6977
521.47	239.76517
521.679	217.77022
521.887	236.65798
522.096	200.31753
522.304	189.10149
522.513	163.56233
522.722	183.00535
522.93	251.86702
523.139	217.46791
523.347	186.39947
523.556	169.5113
523.764	190.2903
523.973	193.83482
524.182	169.12195
524.39	238.66475
524.598	173.75052
524.807	159.40811
525.015	221.85104
525.224	224.39856
525.432	197.78945
525.641	168.60281
525.849	196.53613
526.057	217.42473
526.266	245.13721
526.474	134.77294
526.683	166.56942
526.891	235.3848
527.099	201.50586
527.308	207.98681
527.516	164.9902
527.724	216.02112
527.932	176.62677
528.141	238.79421
528.349	271.96078
528.557	201.20338
528.765	190.72259
528.974	176.28077
529.182	163.75704
529.39	203.73116
529.598	163.62724
529.806	156.83305
530.015	216.453
530.223	180.54058
530.431	169.53293
530.639	153.47862
530.847	153.26219
531.055	214.66063
531.263	206.45312
531.471	144.86346
531.679	139.49385
531.887	205.89147
532.095	210.18999
532.303	237.13272
532.511	195.08826
532.719	187.71809
532.927	186.48594
533.135	215.86995
533.343	248.09249
533.551	225.75858
533.759	172.8638
533.967	238.75106
534.175	217.48951
534.383	249.71021
534.591	250.85334
534.798	239.22575
535.006	160.20871
535.214	189.92286
535.422	170.85235
535.63	231.86708
535.837	149.88569
536.045	157.85012
536.253	186.52917
536.461	213.1273
536.668	192.84067
536.876	232.49296
537.084	241.08131
537.292	214.16393
537.499	245.48237
537.707	218.1373
537.915	224.72238
538.122	260.03989
538.33	254.17464
538.538	222.08853
538.745	219.88627
538.953	257.27992
539.16	229.51449
539.368	188.1288
539.575	191.39261
539.783	207.44679
539.99	282.34712
540.198	209.9308
540.406	209.9956
540.613	194.48316
540.82	193.53225
541.028	244.89992
541.235	197.1844
541.443	264.28714
541.65	293.20354
541.858	240.26143
542.065	198.32966
542.272	215.86995
542.48	294.30188
542.687	202.86699
542.895	253.39827
543.102	209.30442
543.309	240.41246
543.516	238.57844
543.724	207.36038
543.931	202.54291
544.138	249.34353
544.346	201.09535
544.553	217.07923
544.76	225.13254
544.967	197.20601
545.174	229.19072
545.382	204.63851
545.589	240.15354
545.796	252.75127
546.003	183.04859
546.21	228.75903
546.417	291.13596
546.624	222.73622
546.832	213.40806
547.039	207.01476
547.246	257.819
547.453	223.01688
547.66	180.30274
547.867	240.56349
548.074	214.20712
548.281	188.84211
548.488	211.26992
548.695	179.89192
548.902	216.71213
549.109	193.03518
549.316	171.97705
549.523	181.773
549.73	189.81479
549.936	222.3692
550.143	189.96609
550.35	172.15007
550.557	179.07026
550.764	159.92742
550.971	218.39642
551.178	183.39451
551.384	236.2264
551.591	241.49124
551.798	255.94297
552.005	200.9225
552.211	236.24798
552.418	208.93722
552.625	154.27939
552.832	238.29793
553.038	233.70153
553.245	242.82887
553.452	242.97989
553.658	189.33926
553.865	196.29842
554.072	215.28689
554.278	216.69054
554.485	292.21285
554.691	277.3699
554.898	193.85643
555.105	248.99842
555.311	186.05359
555.518	266.27041
555.724	245.18036
555.931	160.3169
556.137	171.02538
556.344	216.69054
556.55	219.26011
556.757	223.29754
556.963	197.20601
557.17	238.88052
557.376	244.23116
557.582	279.56774
557.789	201.70031
557.995	208.61322
558.202	189.66348
558.408	229.66558
558.614	184.34575
558.821	228.65111
559.027	230.26993
559.233	229.7735
559.439	302.33358
559.646	235.6006
559.852	260.47111
560.058	237.3485
560.264	251.80232
560.471	230.42101
560.677	266.24886
560.883	263.44636
561.089	270.43053
561.295	209.23962
561.502	238.40582
561.708	218.09412
561.914	221.16015
562.12	226.81633
562.326	253.48453
562.532	245.35294
562.738	261.13949
562.944	203.25587
563.15	230.18359
563.356	182.39999
563.562	228.5216
563.768	235.0611
563.974	181.79462
564.18	250.52982
564.386	233.24832
564.592	197.03314
564.798	198.58895
565.004	286.87112
565.21	180.88653
565.416	260.19082
565.622	241.42651
565.828	256.46051
