Data from deut_6ms_666_SR4014911__0__14-52-12-010.txt Node

Date: Thu Jul 10 14:52:12 EDT 2025
User: cryst
Spectrometer: SR401491
Trigger mode: 0
Integration Time (sec): 6.000000E-3
Scans to average: 666
Electric dark correction enabled: true
Nonlinearity correction enabled: true
Boxcar width: 0
XAxis mode: Wavelengths
Number of Pixels in Spectrum: 3648
>>>>>Begin Spectral Data<<<<<
344.912	-18.09872
345.129	-5.45838
345.347	-17.35962
345.565	-2.57543
345.783	5.10273
346.001	6.19243
346.219	-5.14294
346.437	6.08134
346.654	1.61115
346.872	8.17403
347.09	0.97716
347.308	11.01792
347.526	3.13071
347.743	5.08803
347.961	1.24024
348.179	6.73644
348.397	-2.89084
348.614	17.25513
348.832	9.74384
349.05	19.16895
349.268	8.92219
349.485	23.6721
349.703	8.34392
349.921	26.03276
350.138	9.75201
350.356	25.19039
350.574	10.13261
350.791	25.91195
351.009	13.71779
351.227	19.22774
351.444	13.33398
351.662	24.50962
351.879	11.39033
352.097	21.64104
352.314	14.09833
352.532	24.69246
352.75	14.30575
352.967	23.09414
353.185	14.87736
353.402	21.80921
353.62	10.72881
353.837	28.4634
354.055	11.77091
354.272	26.11438
354.49	15.67433
354.707	26.09969
354.925	13.42217
355.142	23.57904
355.359	16.2851
355.577	27.7468
355.794	14.46417
356.012	23.90719
356.229	14.14079
356.446	21.7488
356.664	14.29105
356.881	29.48848
357.099	12.52224
357.316	19.65555
357.533	16.13813
357.751	24.70879
357.968	17.48702
358.185	23.1072
358.402	15.00311
358.62	26.88816
358.837	16.19855
359.054	18.63172
359.272	15.08803
359.489	22.32025
359.706	14.35148
359.923	22.97496
360.141	15.52081
360.358	29.05593
360.575	14.88389
360.792	24.67124
361.009	10.40212
361.226	26.91265
361.444	16.84034
361.661	23.37986
361.878	14.57685
362.095	22.83781
362.312	17.08693
362.529	29.89654
362.746	13.5022
362.963	19.40409
363.181	15.26931
363.398	26.61065
363.615	15.98462
363.832	19.97886
364.049	12.05021
364.266	30.23441
364.483	13.83538
364.7	24.43452
364.917	9.76834
365.134	27.29789
365.351	17.16858
365.568	22.66149
365.785	11.24333
366.002	19.59677
366.219	11.64187
366.436	24.78878
366.652	16.55456
366.869	23.32924
367.086	19.72087
367.303	19.4694
367.52	11.93587
367.737	24.69083
367.954	16.89097
368.171	25.87441
368.387	18.87666
368.604	24.49655
368.821	18.18756
369.038	21.46797
369.255	12.71987
369.471	21.41735
369.688	17.26003
369.905	26.67594
370.122	19.79761
370.339	25.72259
370.555	12.27397
370.772	19.21467
370.989	19.22447
371.205	21.3896
371.422	11.59614
371.639	19.74373
371.855	13.13799
372.072	23.11537
372.289	14.87409
372.505	27.11506
372.722	11.24823
372.939	21.04018
373.155	14.00197
373.372	25.14631
373.589	17.11143
373.805	25.14631
374.022	14.34004
374.238	20.63852
374.455	14.56379
374.671	24.17167
374.888	14.87899
375.104	17.48212
375.321	11.94404
375.537	21.38796
375.754	13.71616
375.97	23.90719
376.187	22.90475
376.403	20.74302
376.62	13.93011
376.836	20.72506
377.053	12.70517
377.269	22.35127
377.486	13.20495
377.702	18.68561
377.918	13.74229
378.135	24.2631
378.351	15.88826
378.568	25.94787
378.784	15.68576
379	23.33251
379.217	14.67811
379.433	22.77087
379.649	15.53878
379.865	24.65002
380.082	20.6875
380.298	19.69801
380.514	23.3619
380.731	19.03995
380.947	10.1032
381.163	23.96923
381.379	19.08567
381.596	23.57087
381.812	18.11245
382.028	25.85645
382.244	15.59267
382.46	21.75533
382.676	14.92309
382.893	22.83455
383.109	16.30143
383.325	23.45659
383.541	15.82784
383.757	16.44188
383.973	18.14837
384.189	23.40108
384.405	17.48538
384.622	22.637
384.838	17.95895
385.054	23.36026
385.27	21.35857
385.486	22.41985
385.702	15.18929
385.918	29.16692
386.134	14.64218
386.35	29.89817
386.566	19.19998
386.782	30.63593
386.998	18.93545
387.214	30.70612
387.43	18.99913
387.646	26.76736
387.861	20.37074
388.077	29.72026
388.293	19.956
388.509	30.41396
388.725	18.56804
388.941	25.22304
389.157	15.64493
389.373	22.81169
389.588	13.65736
389.804	24.45901
390.02	19.57881
390.236	22.76434
390.452	15.58451
390.668	24.31371
390.883	22.24352
391.099	23.77332
391.315	22.41985
391.531	25.2263
391.746	18.87993
391.962	27.67008
392.178	14.97535
392.393	30.5886
392.609	22.66475
392.825	30.69959
393.041	15.0962
393.256	27.91167
393.472	19.49063
393.687	29.2567
393.903	22.88679
394.119	26.00827
394.334	17.14409
394.55	29.52765
394.766	12.61697
394.981	31.58422
395.197	20.77567
395.412	34.047
395.628	25.6377
395.843	33.66348
396.059	30.74203
396.274	34.58065
396.49	28.79966
396.705	32.39375
396.921	18.13041
397.136	28.33118
397.352	21.38796
397.567	30.49557
397.783	18.65948
397.998	28.50258
398.214	19.79761
398.429	26.43597
398.644	18.57784
398.86	32.57817
399.075	22.4672
399.29	29.00859
399.506	19.93803
399.721	26.96488
399.936	12.85543
400.152	32.06896
400.367	18.3378
400.582	30.76161
400.798	23.13986
401.013	19.6131
401.228	20.16337
401.444	28.23487
401.659	17.98344
401.874	30.88403
402.089	19.96089
402.304	31.73764
402.52	16.8877
402.735	28.39484
402.95	16.13649
403.165	31.78171
403.38	17.68624
403.596	26.25314
403.811	19.42042
404.026	30.56738
404.241	18.55498
404.456	26.16009
404.671	26.13887
404.886	32.4525
405.101	21.70798
405.316	29.69251
405.532	28.29853
405.747	28.88617
405.962	23.43536
406.177	31.64624
406.392	21.59696
406.607	31.91717
406.822	23.27373
407.037	35.8976
407.252	26.51923
407.467	41.71948
407.682	29.49501
407.896	45.0655
408.111	35.39335
408.326	47.71952
408.541	39.99165
408.756	57.7704
408.971	50.86256
409.186	55.90337
409.401	47.42591
409.616	35.51574
409.83	24.44595
410.045	30.59023
410.26	12.95016
410.475	26.78205
410.69	20.2695
410.905	26.6939
411.119	17.23227
411.334	31.59891
411.549	18.52722
411.764	30.78773
411.978	20.98957
412.193	31.60217
412.408	18.457
412.623	24.62553
412.837	22.91782
413.052	25.76176
413.267	17.15388
413.481	25.13815
413.696	22.74965
413.911	22.67944
414.125	19.02852
414.34	23.79944
414.554	18.28717
414.769	30.26053
414.984	15.49142
415.198	23.39781
415.413	14.44457
415.627	28.97758
415.842	14.93452
416.056	27.2881
416.271	13.15595
416.485	27.64233
416.7	22.36923
416.914	30.11526
417.129	17.4021
417.343	31.6544
417.558	18.00141
417.772	30.60329
417.987	16.76849
418.201	24.44758
418.415	14.68791
418.63	25.52832
418.844	18.72643
419.059	29.59947
419.273	14.68628
419.487	31.25126
419.702	21.67696
419.916	31.67725
420.13	20.47524
420.345	26.0703
420.559	18.05693
420.773	30.7763
420.988	17.229
421.202	36.48996
421.416	20.34624
421.63	25.29324
421.845	19.53472
422.059	33.9246
422.273	16.77175
422.487	32.46882
422.701	28.01451
422.916	34.80749
423.13	21.36184
423.344	32.16852
423.558	22.71863
423.772	27.50684
423.986	17.11959
424.201	30.60819
424.415	25.87277
424.629	33.93765
424.843	22.78067
425.057	33.03841
425.271	14.22899
425.485	25.42547
425.699	14.79733
425.913	28.8372
426.127	18.65785
426.341	30.59513
426.555	19.99192
426.769	30.5478
426.983	20.40992
427.197	27.85617
427.411	19.15262
427.625	30.72897
427.839	13.36174
428.053	28.58419
428.267	18.75256
428.481	33.00414
428.695	19.04485
428.908	26.05235
429.122	19.13793
429.336	27.88392
429.55	21.95453
429.764	34.12696
429.978	29.42156
430.191	41.36054
430.405	41.14355
430.619	52.66307
430.833	56.79532
431.047	82.01864
431.26	88.50973
431.474	114.07459
431.688	117.90465
431.901	131.70895
432.115	143.86147
432.329	162.14767
432.543	169.24345
432.756	199.98346
432.97	202.61768
433.184	156.96721
433.397	71.88065
433.611	37.4152
433.824	25.26875
434.038	27.84148
434.252	22.41495
434.465	28.7311
434.679	19.6131
434.892	29.89981
435.106	11.08652
435.319	28.95962
435.533	19.58044
435.747	32.88826
435.96	19.52655
436.174	30.13811
436.387	25.22794
436.601	28.42912
436.814	25.20671
437.027	27.72068
437.241	19.72087
437.454	23.71454
437.668	23.85985
437.881	32.61408
438.095	20.12418
438.308	31.02113
438.521	25.79441
438.735	27.89861
438.948	23.06475
439.161	31.7507
439.375	20.6826
439.588	31.00154
439.801	26.88163
440.015	26.91428
440.228	22.90639
440.441	34.84666
440.654	26.66778
440.868	39.19867
441.081	23.17251
441.294	34.25099
441.507	26.41149
441.721	25.44833
441.934	20.79853
442.147	30.60166
442.36	21.61818
442.573	31.41448
442.786	20.01804
443	30.94442
443.213	24.15208
443.426	33.53781
443.639	26.5682
443.852	28.84373
444.065	25.12019
444.278	33.46274
444.491	25.13488
444.704	34.34402
444.917	23.58393
445.13	34.71121
445.343	20.61729
445.556	44.75066
445.769	34.03721
445.982	32.42965
446.195	27.38768
446.408	34.22325
446.621	26.26946
446.834	32.44434
447.047	27.25382
447.26	34.30322
447.473	21.34551
447.686	35.34276
447.899	27.03018
448.111	36.1995
448.324	25.92665
448.537	36.20929
448.75	24.18147
448.963	31.18924
449.176	25.15774
449.388	37.85251
449.601	22.07535
449.814	31.04235
450.027	27.4089
450.239	36.11464
450.452	24.64349
450.665	33.12165
450.878	21.08753
451.09	35.10124
451.303	24.01494
451.516	31.01623
451.728	27.52643
451.941	24.62063
452.154	26.70206
452.366	32.05754
452.579	19.91028
452.792	34.89725
453.004	26.88163
453.217	33.26853
453.429	24.48023
453.642	28.28384
453.854	27.97696
454.067	31.66746
454.28	24.92102
454.492	32.56185
454.705	25.93807
454.917	33.78588
455.13	29.62722
455.342	37.82967
455.555	17.96385
455.767	37.82967
455.979	21.80595
456.192	36.19623
456.404	16.60028
456.617	32.0151
456.829	21.79125
457.041	37.44131
457.254	24.69573
457.466	31.79313
457.679	25.94787
457.891	37.74481
458.103	22.71863
458.315	36.22234
458.528	25.15284
458.74	30.91667
458.952	26.06377
459.165	33.8838
459.377	23.24598
459.589	28.74905
459.801	24.20596
460.014	34.23304
460.226	25.78462
460.438	32.41496
460.65	21.12182
460.862	31.6136
461.075	23.41414
461.287	31.14517
461.499	18.90606
461.711	24.8851
461.923	18.52885
462.135	29.33015
462.347	23.1872
462.559	31.77518
462.771	24.48513
462.983	33.55087
463.196	23.83209
463.408	34.17103
463.62	22.63046
463.832	35.02617
464.044	23.98556
464.256	38.46604
464.468	23.66556
464.68	28.29364
464.891	26.17152
465.103	33.12491
465.315	23.53332
465.527	25.87441
465.739	21.68349
465.951	28.4634
466.163	22.85414
466.375	28.64622
466.587	19.76659
466.799	30.63593
467.01	15.55021
467.222	27.95411
467.434	23.24598
467.646	28.06674
467.858	23.37496
468.069	31.73438
468.281	21.39939
468.493	27.80393
468.705	12.90443
468.916	29.83941
469.128	13.42707
469.34	24.95367
469.551	17.96222
469.763	24.82307
469.975	17.54581
470.186	30.67348
470.398	17.5948
470.61	20.71036
470.821	12.29031
471.033	28.58256
471.245	24.90959
471.456	24.0329
471.668	22.33005
471.879	24.90469
472.091	23.72271
472.302	31.25779
472.514	22.16025
472.725	28.54502
472.937	21.45001
473.148	24.81327
473.36	18.06673
473.571	30.96074
473.783	17.66011
473.994	29.3073
474.206	18.08306
474.417	27.45134
474.629	21.69492
474.84	33.58351
475.051	22.49005
475.263	30.31602
475.474	19.27182
475.685	34.29179
475.897	22.37576
476.108	26.85714
476.319	16.80278
476.531	25.89073
476.742	24.00841
476.953	29.99774
477.165	23.26067
477.376	30.77794
477.587	22.43781
477.798	27.37788
478.01	18.21206
478.221	28.42912
478.432	22.40189
478.643	27.87576
478.854	20.28583
479.065	38.61453
479.277	26.92734
479.488	35.31828
479.699	22.09004
479.91	33.40562
480.121	23.81413
480.332	32.86052
480.543	24.72022
480.754	32.1473
480.965	23.33741
481.176	38.42525
481.387	30.10547
481.598	37.43804
481.809	34.22978
482.02	51.86068
482.231	86.69531
482.442	173.72022
482.653	300.63064
482.864	460.93686
483.075	679.32356
483.286	957.9731
483.497	1271.54992
483.708	1523.19527
483.919	1729.16016
484.13	1935.56618
484.341	2181.63096
484.551	2563.65195
484.762	2856.62716
484.973	2970.4844
485.184	2075.4281
485.395	705.93067
485.605	223.66315
485.816	119.11181
486.027	59.37644
486.238	50.17591
486.449	47.56619
486.659	45.17317
486.87	38.03853
487.081	33.56556
487.291	31.63482
487.502	39.40752
487.713	23.27863
487.923	38.62595
488.134	23.10067
488.345	45.38361
488.555	30.01243
488.766	33.27179
488.976	33.13307
489.187	42.19098
489.398	29.12285
489.608	37.57837
489.819	24.6092
490.029	32.85889
490.24	34.90214
490.45	42.43081
490.661	28.91228
490.871	31.18761
491.082	20.86874
491.292	28.97268
491.503	27.05793
491.713	37.93573
491.924	26.85714
492.134	35.88291
492.344	28.8323
492.555	41.78637
492.765	29.89165
492.975	36.49975
493.186	27.14118
493.396	35.33297
493.607	20.25644
493.817	33.45132
494.027	23.32271
494.237	31.93839
494.448	27.29953
494.658	37.77419
494.868	23.56108
495.078	35.82417
495.289	31.01786
495.499	37.82151
495.709	24.57982
495.919	36.48017
496.129	24.21412
496.34	24.28922
496.55	22.72189
496.76	34.70305
496.97	26.31517
497.18	32.539
497.39	23.02557
497.6	33.69775
497.81	30.26869
498.021	34.56433
498.231	30.75998
498.441	38.35672
498.651	23.32598
498.861	33.21794
499.071	24.70879
499.281	35.53043
499.491	26.2613
499.701	34.64756
499.911	26.32334
500.121	31.38673
500.331	25.91522
500.54	43.0426
500.75	30.01733
500.96	35.63487
501.17	27.15751
501.38	41.06686
501.59	29.78392
501.8	30.99175
502.01	25.07938
502.219	38.32898
502.429	29.94877
502.639	42.01478
502.849	27.54765
503.059	35.3297
503.268	27.404
503.478	34.02741
503.688	23.94148
503.898	33.71244
504.107	26.53392
504.317	45.41134
504.527	30.57391
504.736	38.42035
504.946	24.35289
505.156	33.12491
505.365	28.62826
505.575	32.60102
505.785	24.11943
505.994	33.29791
506.204	21.75697
506.413	35.61039
506.623	21.33735
506.832	32.4068
507.042	25.63933
507.251	36.22234
507.461	29.21099
507.67	33.46274
507.88	22.04596
508.089	32.14567
508.299	28.04226
508.508	33.82505
508.718	22.877
508.927	32.58307
509.137	28.8372
509.346	34.61329
509.555	24.60104
509.765	34.44357
509.974	40.27718
510.184	35.66098
510.393	24.93898
510.602	32.96497
510.812	29.43135
511.021	34.24773
511.23	30.41722
511.439	30.75508
511.649	25.32099
511.858	31.16476
512.067	26.72328
512.276	33.35013
512.486	38.91965
512.695	34.51864
512.904	21.91697
513.113	34.32933
513.322	28.89923
513.531	35.33297
513.741	30.68653
513.95	27.81373
514.159	28.14183
514.368	27.35176
514.577	18.3035
514.786	35.20894
514.995	27.12323
515.204	33.57045
515.413	23.94964
515.622	31.02113
515.831	24.7447
516.04	32.05917
516.249	19.76005
516.458	29.10816
516.667	24.96836
516.876	33.37135
517.085	24.49982
517.294	33.42357
517.503	22.58475
517.712	29.44931
517.921	25.25569
518.13	33.98825
518.339	24.83286
518.547	40.32287
518.756	28.20876
518.965	31.37204
519.174	26.62044
519.383	30.90198
519.591	23.01741
519.8	28.30506
520.009	23.91209
520.218	29.06409
520.426	21.55124
520.635	28.30996
520.844	21.6639
521.053	32.31051
521.261	22.75618
521.47	31.08152
521.679	25.43526
521.887	33.46274
522.096	18.61866
522.304	30.15117
522.513	23.29169
522.722	25.16263
522.93	26.43761
523.139	32.64182
523.347	22.05575
523.556	29.59458
523.764	18.96647
523.973	27.48399
524.182	20.64668
524.39	34.90051
524.598	19.07751
524.807	30.84812
525.015	25.29487
525.224	33.19835
525.432	18.0259
525.641	25.06468
525.849	24.24351
526.057	29.44278
526.266	25.36996
526.474	31.48793
526.683	20.37563
526.891	32.17505
527.099	25.66545
527.308	32.52431
527.516	19.66372
527.724	32.51615
527.932	22.0133
528.141	34.71284
528.349	28.1402
528.557	35.31012
528.765	23.70801
528.974	28.86332
529.182	20.02947
529.39	29.95693
529.598	19.7225
529.806	29.58968
530.015	24.00025
530.223	31.81925
530.431	20.94712
530.639	27.76476
530.847	18.3231
531.055	30.80242
531.263	21.28673
531.471	24.65165
531.679	16.83218
531.887	31.50261
532.095	24.8296
532.303	34.80586
532.511	27.65702
532.719	27.42032
532.927	21.44021
533.135	33.58677
533.343	26.87184
533.551	31.48466
533.759	22.00351
533.967	35.11429
534.175	23.55128
534.383	38.27513
534.591	27.78761
534.798	36.85876
535.006	25.03203
535.214	33.23263
535.422	24.619
535.63	34.01273
535.837	18.91259
536.045	30.46129
536.253	21.36184
536.461	31.88616
536.668	23.5774
536.876	32.16036
537.084	25.3569
537.292	32.20442
537.499	30.02712
537.707	34.33749
537.915	28.35893
538.122	35.60386
538.33	27.54275
538.538	31.22189
538.745	29.07062
538.953	34.21672
539.16	24.22065
539.368	35.92208
539.575	24.30881
539.783	31.03255
539.99	31.54668
540.198	28.63153
540.406	21.35694
540.613	31.89759
540.82	26.39353
541.028	37.17859
541.235	26.34456
541.443	36.90445
541.65	28.8878
541.858	36.15544
542.065	24.66797
542.272	30.30133
542.48	28.02104
542.687	37.38093
542.895	28.33934
543.102	36.4149
543.309	23.91046
543.516	31.16313
543.724	25.22304
543.931	33.04168
544.138	24.39534
544.346	32.28766
544.553	23.05006
544.76	27.47093
544.967	22.7823
545.174	33.28485
545.382	23.26394
545.589	34.10248
545.796	30.54616
546.003	28.88127
546.21	23.96597
546.417	41.60854
546.624	25.46792
546.832	35.65119
547.039	32.09834
547.246	35.03433
547.453	32.17015
547.66	33.79893
547.867	26.7543
548.074	35.66098
548.281	28.71151
548.488	30.63593
548.695	24.1782
548.902	36.38553
549.109	25.06632
549.316	26.37884
549.523	25.05978
549.73	33.3436
549.936	23.6525
550.143	31.4259
550.35	20.02947
550.557	31.81272
550.764	21.35694
550.971	35.84049
551.178	20.85405
551.384	38.45625
551.591	21.72104
551.798	34.19061
552.005	21.49083
552.211	30.69143
552.418	23.69658
552.625	28.89759
552.832	28.20223
553.038	38.26044
553.245	31.17945
553.452	35.38519
553.658	26.55841
553.865	33.82994
554.072	23.39618
554.278	37.5898
554.485	30.90198
554.691	37.3434
554.898	23.13333
555.105	32.82135
555.311	25.56097
555.518	37.04478
555.724	21.69002
555.931	29.02328
556.137	19.85149
556.344	33.42684
556.55	23.6525
556.757	34.77975
556.963	22.72843
557.17	35.61365
557.376	26.10132
557.582	34.1286
557.789	24.82633
557.995	31.76865
558.202	19.79271
558.408	34.09106
558.614	18.07652
558.821	34.6345
559.027	28.45687
559.233	36.3382
559.439	24.67777
559.646	37.87862
559.852	24.50472
560.058	35.81438
560.264	27.99492
560.471	33.42194
560.677	27.78434
560.883	38.80543
561.089	27.48725
561.295	36.19297
561.502	26.90285
561.708	31.45691
561.914	28.1402
562.12	33.40725
562.326	28.58419
562.532	38.17723
562.738	27.04977
562.944	30.84975
563.15	30.55759
563.356	30.43354
563.562	33.33218
563.768	39.82033
563.974	22.72516
564.18	34.66878
564.386	25.38466
564.592	33.13307
564.798	22.74475
565.004	33.74345
565.21	21.26061
565.416	38.44809
565.622	26.87836
565.828	36.11138
566.034	32.19626
566.239	35.62997
566.445	34.17429
566.651	42.62658
566.857	34.85318
567.063	40.36202
567.268	39.83012
567.474	43.48472
567.68	36.53565
567.886	44.28899
568.091	43.19433
568.297	50.49233
568.503	39.86438
568.708	52.90607
568.914	49.82198
569.12	59.19383
569.325	46.20903
569.531	54.8418
569.737	36.08527
569.942	51.29149
570.148	43.80447
570.353	64.00975
570.559	46.6984
570.765	52.50977
570.97	50.19712
571.176	61.15845
571.381	46.16988
571.587	49.36203
571.792	40.2935
571.998	49.58548
572.203	40.53008
572.408	64.22656
572.614	60.33023
572.819	64.6129
573.025	53.88618
573.23	59.771
573.435	55.58865
573.641	65.35949
573.846	46.89088
574.051	63.70491
574.257	52.8816
574.462	63.51255
574.667	50.50863
574.873	60.05306
575.078	58.62153
575.283	58.07368
575.488	55.81369
575.694	74.25988
575.899	52.48531
576.104	62.42682
576.309	58.08346
576.514	68.58033
576.719	70.82785
576.925	87.93317
577.13	70.5785
577.335	74.50594
577.54	60.71499
577.745	65.20137
