Data from deut_5ms_800_SR4014911__0__14-49-12-682.txt Node

Date: Thu Jul 10 14:49:12 EDT 2025
User: cryst
Spectrometer: SR401491
Trigger mode: 0
Integration Time (sec): 5.000000E-3
Scans to average: 800
Electric dark correction enabled: true
Nonlinearity correction enabled: true
Boxcar width: 0
XAxis mode: Wavelengths
Number of Pixels in Spectrum: 3648
>>>>>Begin Spectral Data<<<<<
344.912	-15.96015
345.129	-2.60342
345.347	-11.64144
345.565	0.19499
345.783	3.59975
346.001	6.7171
346.219	-1.90277
346.437	7.46783
346.654	1.49682
346.872	7.21079
347.09	-3.266
347.308	11.77183
347.526	-6.48114
347.743	4.07581
347.961	-0.6947
348.179	8.62515
348.397	-1.35043
348.614	18.47462
348.832	11.36254
349.05	23.24576
349.268	11.24696
349.485	21.037
349.703	12.60943
349.921	22.19509
350.138	11.67529
350.356	24.02048
350.574	8.24165
350.791	19.57845
351.009	10.99947
351.227	17.13148
351.444	11.67529
351.662	18.32101
351.879	11.00763
352.097	21.70169
352.314	11.77591
352.532	22.99703
352.75	15.50004
352.967	22.9345
353.185	10.49362
353.402	23.31508
353.62	13.08261
353.837	20.96904
354.055	13.68631
354.272	23.23624
354.49	16.75354
354.707	24.62529
354.925	13.50955
355.142	24.01232
355.359	17.07846
355.577	24.09659
355.794	16.64478
356.012	24.43909
356.229	12.82971
356.446	21.79412
356.664	12.93848
356.881	22.74422
357.099	10.94508
357.316	20.40221
357.533	15.29203
357.751	18.87972
357.968	18.89196
358.185	20.69854
358.402	14.7006
358.62	20.16297
358.837	17.48902
359.054	22.05781
359.272	10.31956
359.489	21.32381
359.706	9.72667
359.923	22.83392
360.141	18.26255
360.358	25.10505
360.575	14.39604
360.792	19.76604
361.009	8.87673
361.226	22.44791
361.444	19.64641
361.661	22.67082
361.878	17.87511
362.095	19.29842
362.312	14.49938
362.529	24.42006
362.746	12.96296
362.963	18.07087
363.181	12.70869
363.398	22.18694
363.615	15.4239
363.832	21.32789
364.049	11.79903
364.266	24.38065
364.483	13.9596
364.7	18.89876
364.917	14.80257
365.134	23.77583
365.351	15.4307
365.568	25.74653
365.785	13.32192
366.002	19.34192
366.219	12.34428
366.436	25.48831
366.652	18.52628
366.869	22.03878
367.086	15.71349
367.303	18.77777
367.52	13.15739
367.737	26.45866
367.954	14.61087
368.171	22.08771
368.387	20.98399
368.604	20.5327
368.821	14.79441
369.038	22.89645
369.255	13.06085
369.471	15.44702
369.688	10.5317
369.905	22.29024
370.122	12.76172
370.339	24.33715
370.555	13.31648
370.772	19.03741
370.989	17.06486
371.205	19.05101
371.422	13.63328
371.639	20.79233
371.855	17.28782
372.072	20.34104
372.289	13.63192
372.505	20.73524
372.722	12.67334
372.939	19.76196
373.155	12.68694
373.372	24.2692
373.589	16.51018
373.805	19.99169
374.022	11.75823
374.238	17.12876
374.455	13.78013
374.671	22.1815
374.888	18.06271
375.104	23.93893
375.321	5.27544
375.537	19.43843
375.754	16.92212
375.97	20.35327
376.187	17.06214
376.403	20.73524
376.62	10.89749
376.836	21.29799
377.053	9.63691
377.269	24.30725
377.486	13.24033
377.702	14.77402
377.918	8.49324
378.135	19.45203
378.351	18.57386
378.568	22.99567
378.784	9.47917
379	21.56848
379.217	11.935
379.433	15.54627
379.649	16.9629
379.865	22.20053
380.082	12.09137
380.298	23.40886
380.514	18.32101
380.731	22.49956
380.947	12.10225
381.163	19.0347
381.379	14.9195
381.596	22.6083
381.812	18.10486
382.028	22.09723
382.244	14.8556
382.46	18.65134
382.676	16.66109
382.893	16.55641
383.109	7.07887
383.325	22.2481
383.541	11.36526
383.757	22.19509
383.973	12.97655
384.189	27.93315
384.405	20.1018
384.622	23.18324
384.838	15.22948
385.054	22.38403
385.27	17.67663
385.486	21.77101
385.702	10.65136
385.918	22.72383
386.134	18.43928
386.35	23.15197
386.566	19.8476
386.782	27.14767
386.998	17.48766
387.214	26.46545
387.43	14.83928
387.646	27.99022
387.861	19.8843
388.077	28.60853
388.293	18.06271
388.509	20.19151
388.725	14.63262
388.941	16.89085
389.157	13.69991
389.373	22.23587
389.588	17.75956
389.804	21.23954
390.02	18.67309
390.236	21.44615
390.452	14.11324
390.668	25.44346
390.883	17.76363
391.099	28.39654
391.315	13.83315
391.531	23.09625
391.746	15.41847
391.962	27.98343
392.178	15.97997
392.393	26.44099
392.609	20.76107
392.825	25.79409
393.041	13.52587
393.256	29.90761
393.472	20.21598
393.687	29.38445
393.903	16.1771
394.119	24.92972
394.334	21.96946
394.55	31.86834
394.766	18.32916
394.981	28.31636
395.197	20.95137
395.412	28.75665
395.628	25.22193
395.843	32.25829
396.059	27.58933
396.274	32.10612
396.49	21.62693
396.705	28.57999
396.921	16.87046
397.136	30.35602
397.352	19.05781
397.567	21.48557
397.783	18.3278
397.998	29.68612
398.214	18.4284
398.429	22.88693
398.644	21.96131
398.86	25.98028
399.075	17.89142
399.29	21.31022
399.506	16.06834
399.721	26.02649
399.936	12.6679
400.152	25.82263
400.367	18.94905
400.582	22.06461
400.798	21.73839
401.013	23.47138
401.228	19.43707
401.444	24.28551
401.659	23.32459
401.874	29.1616
402.089	16.54009
402.304	30.38863
402.52	16.53194
402.735	25.48015
402.95	15.95685
403.165	30.89818
403.38	17.96211
403.596	28.39926
403.811	22.04694
404.026	29.89946
404.241	17.98794
404.456	26.14744
404.671	22.05373
404.886	29.51083
405.101	21.73295
405.316	28.74442
405.532	22.20597
405.747	27.20339
405.962	19.31473
406.177	25.63101
406.392	20.91875
406.607	30.50821
406.822	22.91412
407.037	31.96345
407.252	24.58995
407.467	38.13953
407.682	26.06454
407.896	46.35398
408.111	33.83436
408.326	43.17335
408.541	39.49112
408.756	51.06175
408.971	43.7818
409.186	52.24977
409.401	43.96515
409.616	36.39119
409.83	21.54537
410.045	22.47917
410.26	17.89278
410.475	28.16145
410.69	18.95993
410.905	22.33509
411.119	17.02952
411.334	25.5318
411.549	18.05999
411.764	29.92935
411.978	20.05694
412.193	27.85433
412.408	21.61062
412.623	24.74489
412.837	21.84305
413.052	26.14608
413.267	18.06543
413.481	26.87587
413.696	17.3789
413.911	26.45186
414.125	14.45315
414.34	24.19173
414.554	16.6978
414.769	29.97147
414.984	17.63177
415.198	29.66438
415.413	15.25668
415.627	27.90325
415.842	18.65542
416.056	26.97644
416.271	13.80052
416.485	26.48312
416.7	15.37224
416.914	30.19568
417.129	14.80801
417.343	24.70683
417.558	17.28374
417.772	25.60654
417.987	16.38375
418.201	25.08194
418.415	16.91396
418.63	25.60383
418.844	20.26628
419.059	27.713
419.273	19.53631
419.487	27.95761
419.702	18.59561
419.916	30.58702
420.13	18.97352
420.345	23.70787
420.559	18.09398
420.773	26.80113
420.988	19.22637
421.202	31.32755
421.416	20.54086
421.63	27.12321
421.845	24.11154
422.059	27.29036
422.273	14.94805
422.487	28.82731
422.701	21.47877
422.916	28.92787
423.13	18.92458
423.344	20.94049
423.558	15.78555
423.772	23.23488
423.986	16.67876
424.201	26.08629
424.415	19.71574
424.629	29.68748
424.843	16.61215
425.057	28.62348
425.271	14.33622
425.485	25.19611
425.699	16.79432
425.913	31.32484
426.127	17.90638
426.341	23.85602
426.555	15.50956
426.769	32.71482
426.983	21.92868
427.197	25.83894
427.411	18.64863
427.625	26.26568
427.839	18.04504
428.053	30.1753
428.267	15.97181
428.481	29.68748
428.695	20.0148
428.908	26.5864
429.122	20.26764
429.336	30.83704
429.55	21.26265
429.764	29.69563
429.978	27.31618
430.191	37.84883
430.405	37.4671
430.619	49.48263
430.833	51.23826
431.047	77.33791
431.26	83.99585
431.474	104.82849
431.688	108.27692
431.901	121.81577
432.115	130.59653
432.329	149.7569
432.543	152.9995
432.756	187.00447
432.97	184.1901
433.184	147.66666
433.397	68.91583
433.611	36.78515
433.824	26.46002
434.038	28.66288
434.252	17.21305
434.465	27.10962
434.679	20.96496
434.892	30.75143
435.106	13.15739
435.319	24.10474
435.533	21.37547
435.747	28.00653
435.96	16.56864
436.174	29.95517
436.387	18.42976
436.601	27.74153
436.814	18.69485
437.027	22.3215
437.241	23.57604
437.454	22.69121
437.668	18.87836
437.881	32.33981
438.095	19.38134
438.308	29.45239
438.521	21.66771
438.735	29.93614
438.948	16.56864
439.161	26.31732
439.375	15.69718
439.588	28.47536
439.801	19.49145
440.015	29.92391
440.228	24.30454
440.441	33.46752
440.654	29.4918
440.868	34.26776
441.081	17.68886
441.294	30.71067
441.507	20.78418
441.721	25.63101
441.934	21.07914
442.147	26.4505
442.36	17.97163
442.573	29.26215
442.786	22.14616
443	31.00009
443.213	17.95939
443.426	29.30835
443.639	24.67965
443.852	34.621
444.065	28.6194
444.278	30.01088
444.491	26.37848
444.704	32.54498
444.917	21.7479
445.13	34.54763
445.343	16.41638
445.556	30.47695
445.769	24.80061
445.982	35.59781
446.195	21.75878
446.408	34.72425
446.621	24.22842
446.834	30.60604
447.047	22.49684
447.26	29.06104
447.473	24.21891
447.686	32.27731
447.899	24.90254
448.111	37.84475
448.324	23.9199
448.537	33.22704
448.75	22.1448
448.963	29.822
449.176	22.57568
449.388	27.94266
449.601	19.85304
449.814	28.14786
450.027	20.80321
450.239	27.10962
450.452	21.68946
450.665	30.34107
450.878	20.68087
451.09	30.23101
451.303	23.60594
451.516	27.27949
451.728	24.17542
451.941	27.69125
452.154	22.56072
452.366	31.15227
452.579	19.45474
452.792	32.50558
453.004	21.62965
453.217	26.36489
453.429	23.25391
453.642	28.44818
453.854	19.72526
454.067	31.82758
454.28	26.96828
454.492	29.81249
454.705	17.44144
454.917	30.09784
455.13	23.55429
455.342	32.21345
455.555	19.91829
455.767	32.70259
455.979	25.97349
456.192	31.81806
456.404	21.76693
456.617	30.12094
456.829	19.81769
457.041	33.0409
457.254	26.04823
457.466	31.89959
457.679	23.1112
457.891	33.78545
458.103	23.14518
458.315	32.04361
458.528	22.26306
458.74	28.47671
458.952	20.63329
459.165	29.49452
459.377	22.41665
459.589	27.53633
459.801	23.51759
460.014	30.31933
460.226	27.44664
460.438	28.13699
460.65	16.90172
460.862	27.54856
461.075	19.65321
461.287	29.10996
461.499	15.78147
461.711	24.10067
461.923	21.08594
462.135	28.60989
462.347	18.63367
462.559	32.03546
462.771	21.98713
462.983	28.80013
463.196	22.63548
463.408	34.61692
463.62	24.76799
463.832	29.60866
464.044	23.32051
464.256	37.56899
464.468	19.74701
464.68	28.51612
464.891	21.30071
465.103	30.0367
465.315	27.07564
465.527	26.32004
465.739	16.47892
465.951	26.52389
466.163	21.24905
466.375	30.11007
466.587	18.86885
466.799	25.63237
467.01	13.97999
467.222	28.02419
467.434	22.00072
467.646	29.02979
467.858	20.7298
468.069	26.93974
468.281	16.98873
468.493	24.76392
468.705	13.30968
468.916	28.13563
469.128	13.75973
469.34	24.57772
469.551	17.56515
469.763	21.44887
469.975	19.71302
470.186	26.33771
470.398	11.97035
470.61	27.38277
470.821	14.21929
471.033	25.95174
471.245	18.78185
471.456	23.54206
471.668	17.65488
471.879	22.28616
472.091	18.79816
472.302	29.65486
472.514	22.6382
472.725	25.17708
472.937	18.85661
473.148	23.44148
473.36	16.7984
473.571	29.1385
473.783	14.43275
473.994	27.46295
474.206	14.2057
474.417	29.92663
474.629	18.45559
474.84	32.01236
475.051	20.90379
475.263	26.66523
475.474	15.27435
475.685	30.68621
475.897	19.62874
476.108	31.35337
476.319	16.4558
476.531	24.46491
476.742	22.29296
476.953	26.60407
477.165	22.51723
477.376	28.76888
477.587	18.93546
477.798	29.74455
478.01	17.06622
478.221	31.40772
478.432	17.72557
478.643	26.6231
478.854	19.83944
479.065	33.99739
479.277	23.16829
479.488	31.0096
479.699	22.33374
479.91	29.24449
480.121	20.47425
480.332	33.13465
480.543	20.4294
480.754	25.21513
480.965	20.86301
481.176	32.38873
481.387	27.46295
481.598	34.08842
481.809	31.56262
482.02	52.41405
482.231	80.62029
482.442	161.08881
482.653	273.11623
482.864	418.31586
483.075	609.14546
483.286	845.69517
483.497	1112.00931
483.708	1326.25167
483.919	1500.41126
484.13	1664.16381
484.341	1872.90975
484.551	2186.22845
484.762	2428.53348
484.973	2519.38137
485.184	1779.39347
485.395	634.79387
485.605	208.05674
485.816	110.8213
486.027	56.03613
486.238	52.13979
486.449	44.83841
486.659	46.29966
486.87	28.3218
487.081	38.56879
487.291	31.8398
487.502	33.24606
487.713	25.48151
487.923	38.35552
488.134	21.63916
488.345	37.89094
488.555	24.11834
488.766	30.09649
488.976	25.66226
489.187	34.15771
489.398	23.78671
489.608	35.1916
489.819	19.05645
490.029	29.7296
490.24	27.38821
490.45	36.59361
490.661	23.93077
490.871	33.0803
491.082	22.96848
491.292	29.52985
491.503	24.05717
491.713	32.37242
491.924	24.05853
492.134	32.97976
492.344	24.83867
492.555	35.74725
492.765	29.97419
492.975	33.15367
493.186	26.05231
493.396	35.08427
493.607	22.29704
493.817	35.42663
494.027	23.55565
494.237	32.93357
494.448	19.32153
494.658	33.07623
494.868	22.99839
495.078	33.65094
495.289	21.42848
495.499	32.82895
495.709	22.62325
495.919	33.0178
496.129	24.28415
496.34	29.13578
496.55	20.12083
496.76	32.2284
496.97	24.16047
497.18	33.17405
497.39	22.48461
497.6	31.11287
497.81	26.99818
498.021	38.35959
498.231	27.32433
498.441	32.29226
498.651	24.25289
498.861	28.33403
499.071	22.62189
499.281	33.80311
499.491	22.78635
499.701	31.86698
499.911	25.25862
500.121	31.75149
500.331	23.05819
500.54	37.804
500.75	25.73158
500.96	31.75013
501.17	20.37094
501.38	35.3587
501.59	27.50644
501.8	33.95392
502.01	20.66592
502.219	35.53124
502.429	27.64097
502.639	37.68717
502.849	28.08806
503.059	35.09378
503.268	21.4543
503.478	30.5843
503.688	21.00438
503.898	31.2107
504.107	26.92072
504.317	39.54274
504.527	21.40673
504.736	33.14824
504.946	22.91684
505.156	31.65637
505.365	22.70208
505.575	29.57605
505.785	21.83354
505.994	35.90212
506.204	18.89876
506.413	25.01399
506.623	20.88476
506.832	33.06128
507.042	23.15741
507.251	35.95646
507.461	23.66166
507.67	29.51354
507.88	19.74293
508.089	28.89933
508.299	21.09138
508.508	30.10872
508.718	18.87972
508.927	32.27324
509.137	26.90169
509.346	34.76365
509.555	21.33877
509.765	31.95937
509.974	32.75286
510.184	34.55986
510.393	21.04924
510.602	29.04609
510.812	26.00746
511.021	29.1779
511.23	26.57553
511.439	25.81856
511.649	16.83783
511.858	35.38587
512.067	22.34189
512.276	33.99332
512.486	38.30933
512.695	31.75556
512.904	21.15934
513.113	29.77988
513.322	23.50944
513.531	34.61828
513.741	27.09603
513.95	28.62076
514.159	22.14208
514.368	29.86277
514.577	23.12751
514.786	28.9863
514.995	20.07461
515.204	33.94441
515.413	26.16647
515.622	29.53257
515.831	23.12343
516.04	29.8519
516.249	20.08141
516.458	26.99003
516.667	19.79866
516.876	33.20938
517.085	22.11626
517.294	33.16862
517.503	20.79913
517.712	30.80443
517.921	21.42576
518.13	36.79466
518.339	23.77583
518.547	34.50416
518.756	20.67679
518.965	31.96888
519.174	19.75516
519.383	32.1034
519.591	19.05781
519.8	25.25047
520.009	23.16013
520.218	28.08263
520.426	18.28566
520.635	28.68191
520.844	22.32014
521.053	29.71058
521.261	25.65003
521.47	33.91723
521.679	23.59506
521.887	26.74405
522.096	22.58383
522.304	27.91004
522.513	21.6079
522.722	27.70484
522.93	24.48666
523.139	29.69291
523.347	20.17384
523.556	30.65224
523.764	19.67632
523.973	28.55961
524.182	20.81408
524.39	26.98867
524.598	22.64635
524.807	27.65184
525.015	18.18914
525.224	30.09513
525.432	17.0703
525.641	28.39654
525.849	20.52455
526.057	27.00633
526.266	23.99737
526.474	27.80812
526.683	21.56712
526.891	28.65201
527.099	19.39221
527.308	31.31125
527.516	15.32058
527.724	30.80986
527.932	18.15244
528.141	30.5449
528.349	20.98263
528.557	29.17654
528.765	20.83583
528.974	25.66498
529.182	16.4191
529.39	29.82608
529.598	14.94397
529.806	26.88538
530.015	18.73291
530.223	28.91564
530.431	19.62331
530.639	27.29308
530.847	17.0268
531.055	29.27438
531.263	21.72887
531.471	30.63865
531.679	16.6271
531.887	28.40469
532.095	17.68207
532.303	29.24721
532.511	19.2087
532.719	30.71203
532.927	19.60835
533.135	31.78545
533.343	24.91613
533.551	26.72774
533.759	22.6314
533.967	34.34248
534.175	23.82068
534.383	35.19839
534.591	30.45793
534.798	31.18624
535.006	19.43843
535.214	28.62484
535.422	17.7011
535.63	30.68757
535.837	18.56434
536.045	28.30006
536.253	24.0096
536.461	29.97419
536.668	23.76496
536.876	32.44579
537.084	23.4972
537.292	34.27863
537.499	23.8832
537.707	28.45905
537.915	26.9479
538.122	34.80712
538.33	27.92635
538.538	28.44002
538.745	24.93244
538.953	35.34376
539.16	24.45132
539.368	28.79198
539.575	21.32653
539.783	30.45929
539.99	28.43323
540.198	30.15492
540.406	22.29432
540.613	30.32613
540.82	23.43876
541.028	32.14688
541.235	25.12136
541.443	35.84506
541.65	29.28525
541.858	35.01499
542.065	24.09251
542.272	33.02188
542.48	25.90146
542.687	29.26759
542.895	26.16647
543.102	32.07351
543.309	24.22842
543.516	34.04494
543.724	25.69352
543.931	29.4157
544.138	25.38502
544.346	33.94169
544.553	23.88049
544.76	27.29308
544.967	19.5431
545.174	32.81264
545.382	24.45948
545.589	29.11811
545.796	27.49964
546.003	30.09377
546.21	18.34955
546.417	37.54725
546.624	27.29308
546.832	30.96748
547.039	25.35104
547.246	38.68561
547.453	25.88923
547.66	30.77046
547.867	23.20498
548.074	35.97277
548.281	20.06509
548.488	29.79347
548.695	22.32422
548.902	32.64145
549.109	21.89878
549.316	31.82893
549.523	15.41031
549.73	31.08433
549.936	19.16656
550.143	30.00001
550.35	18.21361
550.557	28.60853
550.764	17.58147
550.971	30.35466
551.178	24.87128
551.384	32.81808
551.591	22.35956
551.798	33.50964
552.005	20.83583
552.211	35.41576
552.418	22.37043
552.625	28.00109
552.832	21.26808
553.038	37.80807
553.245	22.96441
553.452	32.03003
553.658	21.02205
553.865	31.27049
554.072	19.44115
554.278	29.08142
554.485	30.1291
554.691	35.0802
554.898	24.19581
555.105	32.3534
555.311	24.56277
555.518	36.83134
555.724	25.65547
555.931	34.693
556.137	20.88612
556.344	33.67132
556.55	25.61742
556.757	33.64143
556.963	24.43365
557.17	32.80993
557.376	23.84651
557.582	31.75013
557.789	23.22129
557.995	32.37786
558.202	25.01535
558.408	31.36152
558.614	21.22187
558.821	33.39416
559.027	26.34178
559.233	31.06259
559.439	25.14174
559.646	33.01916
559.852	23.62497
560.058	33.16862
560.264	26.23578
560.471	32.60748
560.677	24.62393
560.883	35.71736
561.089	26.77666
561.295	33.78952
561.502	21.75606
561.708	35.6766
561.914	28.15057
562.12	32.52596
562.326	23.19955
562.532	34.51774
562.738	26.32412
562.944	30.80443
563.15	23.5108
563.356	32.61699
563.562	23.96883
563.768	36.96855
563.974	20.24725
564.18	31.71208
564.386	26.34314
564.592	34.7324
564.798	21.46518
565.004	34.76772
565.21	20.32473
565.416	39.77501
565.622	23.93621
565.828	32.60476
566.034	28.93738
566.239	37.06092
566.445	31.45528
566.651	39.02113
566.857	31.39006
567.063	36.50802
567.268	32.20258
567.474	41.17814
567.68	30.79763
567.886	42.74145
568.091	41.4688
568.297	46.01176
568.503	39.83614
568.708	51.04817
568.914	45.31373
569.12	47.46887
569.325	42.95876
569.531	48.34745
569.737	34.03408
569.942	47.61417
570.148	41.61821
570.353	59.34418
570.559	44.62519
570.765	52.68287
570.97	46.54953
571.176	60.17893
571.381	43.42868
571.587	47.70923
571.792	37.2022
571.998	43.51696
572.203	37.25247
572.408	62.01802
572.614	58.06961
572.819	61.63664
573.025	47.23395
573.23	54.88629
573.435	47.34801
573.641	57.49813
573.846	42.44537
574.051	57.47234
574.257	52.59326
574.462	59.89254
574.667	44.89952
574.873	54.6908
575.078	54.91616
575.283	57.04203
575.488	54.198
575.694	69.05558
575.899	51.43921
576.104	64.31432
576.309	53.96585
576.514	57.07325
576.719	68.92939
576.925	81.61849
577.13	68.0827
577.335	63.36162
577.54	58.42932
577.745	57.08547
