Data from deut_60ms_66_SR4014911__0__16-23-17-606.txt Node

Date: Sun Jul 13 16:23:17 EDT 2025
User: cryst
Spectrometer: SR401491
Trigger mode: 0
Integration Time (sec): 6.000000E-2
Scans to average: 66
Electric dark correction enabled: true
Nonlinearity correction enabled: true
Boxcar width: 0
XAxis mode: Wavelengths
Number of Pixels in Spectrum: 3648
>>>>>Begin Spectral Data<<<<<
344.912	-97.07136
345.129	-86.18311
345.347	-98.72651
345.565	-87.05995
345.783	44.45094
346.001	27.67112
346.219	11.58946
346.437	35.01667
346.654	64.32941
346.872	21.03202
347.09	-14.41561
347.308	65.29992
347.526	18.77468
347.743	12.90799
347.961	81.34938
348.179	38.42525
348.397	39.13325
348.614	82.0727
348.832	97.53721
349.05	89.07473
349.268	93.19949
349.485	109.56092
349.703	54.52366
349.921	112.68097
350.138	114.09308
350.356	118.65732
350.574	49.91569
350.791	84.73566
351.009	102.67915
351.227	97.06076
351.444	74.98665
351.662	98.3751
351.879	61.82895
352.097	102.00566
352.314	71.31958
352.532	93.67602
352.75	86.83954
352.967	101.48
353.185	108.54273
353.402	71.63204
353.62	71.79649
353.837	117.57379
354.055	91.40834
354.272	134.29804
354.49	137.44809
354.707	129.49025
354.925	86.69161
355.142	97.01147
355.359	132.47676
355.577	141.12269
355.794	125.14118
356.012	148.06045
356.229	130.04819
356.446	93.70888
356.664	106.98251
356.881	145.55125
357.099	90.3566
357.316	100.24794
357.533	115.68573
357.751	94.11967
357.968	183.54218
358.185	130.37639
358.402	109.70872
358.62	131.75478
358.837	125.09194
359.054	84.50553
359.272	83.46996
359.489	105.06087
359.706	98.35867
359.923	129.17845
360.141	109.56092
360.358	111.97488
360.575	126.86448
360.792	105.19227
361.009	106.65404
361.226	117.2947
361.444	169.60071
361.661	113.37061
361.878	116.34246
362.095	101.38144
362.312	125.6828
362.529	121.34954
362.746	116.67082
362.963	85.5575
363.181	85.85336
363.398	124.20563
363.615	152.47149
363.832	91.09611
364.049	77.56809
364.266	165.07765
364.483	123.5655
364.7	107.91865
364.917	59.08147
365.134	118.41107
365.351	111.12099
365.568	137.05435
365.785	85.93555
366.002	79.14643
366.219	95.13841
366.436	140.00724
366.652	152.50429
366.869	109.6923
367.086	131.04918
367.303	80.41233
367.52	88.3516
367.737	144.66559
367.954	130.5569
368.171	98.12867
368.387	174.69646
368.604	106.3584
368.821	109.06825
369.038	102.16993
369.255	114.50357
369.471	101.44714
369.688	129.91691
369.905	142.33651
370.122	112.79591
370.339	121.67784
370.555	105.58646
370.772	86.37933
370.989	167.61786
371.205	107.31099
371.422	100.83933
371.639	96.23926
371.855	156.81626
372.072	100.59292
372.289	87.13538
372.505	155.71784
372.722	84.47266
372.939	132.5588
373.155	141.59838
373.372	107.03179
373.589	122.99101
373.805	95.43416
374.022	87.7928
374.238	90.94821
374.455	119.49456
374.671	138.10431
374.888	127.04501
375.104	69.4283
375.321	87.56271
375.537	117.1141
375.754	109.16679
375.97	116.30962
376.187	158.76709
376.403	106.9004
376.62	110.52982
376.836	107.32741
377.053	106.0135
377.269	104.37101
377.486	87.71063
377.702	79.52457
377.918	77.68318
378.135	111.41657
378.351	121.46444
378.568	119.60948
378.784	118.70657
379	120.8735
379.217	107.6723
379.433	105.38936
379.649	135.24966
379.865	104.02608
380.082	158.32448
380.298	87.06964
380.514	159.32445
380.731	104.46956
380.947	91.45764
381.163	121.7435
381.379	110.03716
381.596	110.10285
381.812	156.27525
382.028	124.43541
382.244	107.1139
382.46	96.89646
382.676	151.48768
382.893	127.11065
383.109	113.40345
383.325	118.00064
383.541	141.43435
383.757	65.18477
383.973	111.46584
384.189	160.22602
384.405	112.3854
384.622	118.36182
384.838	124.27128
385.054	128.89947
385.27	145.32163
385.486	110.66119
385.702	91.26044
385.918	131.77118
386.134	101.46357
386.35	144.28836
386.566	143.20584
386.782	143.35346
386.998	140.17128
387.214	122.3016
387.43	108.72338
387.646	155.1932
387.861	151.04495
388.077	112.61529
388.293	127.96405
388.509	126.96295
388.725	137.33325
388.941	137.72698
389.157	88.59812
389.373	126.04387
389.588	133.70737
389.804	135.15122
390.02	154.75053
390.236	98.49011
390.452	105.71786
390.668	139.56433
390.883	163.20922
391.099	132.52599
391.315	132.31267
391.531	114.24086
391.746	97.61936
391.962	128.35792
392.178	136.48015
392.393	119.5274
392.609	169.76457
392.825	128.57126
393.041	122.33443
393.256	148.864
393.472	154.521
393.687	133.87145
393.903	151.38929
394.119	131.68914
394.334	128.68613
394.55	155.27518
394.766	128.02969
394.981	168.68304
395.197	148.73281
395.412	166.07738
395.628	142.53334
395.843	171.74726
396.059	234.85799
396.274	170.04314
396.49	204.44958
396.705	146.37127
396.921	108.05004
397.136	142.22169
397.352	128.24304
397.567	132.52599
397.783	136.23405
397.998	132.44394
398.214	124.22204
398.429	121.71067
398.644	187.37446
398.86	125.58432
399.075	146.35487
399.29	136.02077
399.506	121.72708
399.721	137.08717
399.936	138.02228
400.152	117.96781
400.367	139.71196
400.582	150.24146
400.798	150.22506
401.013	108.72338
401.228	147.17487
401.444	145.46924
401.659	128.83383
401.874	172.3699
402.089	156.1441
402.304	155.5375
402.52	137.15279
402.735	112.86159
402.95	104.23961
403.165	150.43824
403.38	175.13881
403.596	129.27691
403.811	155.50471
404.026	190.20738
404.241	128.17739
404.456	132.77211
404.671	173.59874
404.886	153.70122
405.101	117.93497
405.316	141.28672
405.532	156.53756
405.747	150.47103
405.962	148.32283
406.177	145.25603
406.392	128.37433
406.607	156.94742
406.822	153.93076
407.037	166.43792
407.252	220.05861
407.467	194.34982
407.682	201.73266
407.896	216.78699
408.111	215.05288
408.326	223.72238
408.541	299.23209
408.756	299.46046
408.971	314.41473
409.186	333.2557
409.401	271.12898
409.616	184.0499
409.83	133.31358
410.045	132.91979
410.26	110.85825
410.475	113.30493
410.69	140.64699
410.905	136.21765
411.119	89.76497
411.334	122.92535
411.549	124.22204
411.764	168.07672
411.978	170.69858
412.193	139.67916
412.408	117.34395
412.623	95.25342
412.837	166.65097
413.052	154.43902
413.267	149.70032
413.481	140.08926
413.696	116.72008
413.911	118.98566
414.125	121.57935
414.34	112.02415
414.554	120.92274
414.769	167.53592
414.984	146.68287
415.198	93.01874
415.413	113.18999
415.627	134.10115
415.842	129.4082
416.056	163.14366
416.271	119.16624
416.485	132.23063
416.7	143.87832
416.914	127.65223
417.129	117.63946
417.343	123.5655
417.558	131.96809
417.772	155.63587
417.987	132.5588
418.201	123.63115
418.415	105.12657
418.63	145.20683
418.844	118.98566
419.059	142.927
419.273	122.51499
419.487	182.14998
419.702	145.97766
419.916	183.31288
420.13	127.93123
420.345	128.91588
420.559	122.43292
420.773	130.37639
420.988	153.11096
421.202	169.58432
421.416	126.0767
421.63	132.72289
421.845	131.03277
422.059	128.85024
422.273	112.22119
422.487	148.29003
422.701	171.07546
422.916	193.64581
423.13	130.40921
423.344	121.49727
423.558	121.48086
423.772	128.43997
423.986	125.00987
424.201	114.97972
424.415	178.41528
424.629	156.35723
424.843	139.38388
425.057	161.99631
425.271	90.32373
425.485	112.10625
425.699	116.47381
425.913	167.60148
426.127	137.15279
426.341	136.80827
426.555	136.61139
426.769	157.19333
426.983	165.97904
427.197	146.84687
427.411	142.61536
427.625	172.41905
427.839	123.4506
428.053	133.9863
428.267	121.89123
428.481	153.53726
428.695	125.37096
428.908	101.80854
429.122	132.98542
429.336	157.20972
429.55	130.27793
429.764	159.47198
429.978	194.08787
430.191	205.52972
430.405	265.038
430.619	267.58559
430.833	362.56888
431.047	467.38931
431.26	637.53786
431.474	749.12629
431.688	835.19196
431.901	884.8174
432.115	1077.30792
432.329	1218.20383
432.543	1332.52534
432.756	1617.75901
432.97	1653.28941
433.184	1128.48827
433.397	503.34608
433.611	201.25799
433.824	179.90594
434.038	162.06187
434.252	138.64567
434.465	136.21765
434.679	135.00355
434.892	148.12604
435.106	84.57128
435.319	120.26612
435.533	168.37169
435.747	166.76569
435.96	96.65001
436.174	174.10664
436.387	161.57014
436.601	150.38904
436.814	162.66833
437.027	120.29895
437.241	147.97845
437.454	121.7435
437.668	148.99519
437.881	170.25616
438.095	135.21685
438.308	149.02798
438.521	182.51032
438.735	143.43547
438.948	142.73017
439.161	142.17249
439.375	132.01732
439.588	161.4554
439.801	160.22602
440.015	148.40483
440.228	169.2402
440.441	179.57833
440.654	208.24628
440.868	200.83241
441.081	116.99918
441.294	175.00774
441.507	156.88184
441.721	134.28164
441.934	157.63596
442.147	118.83791
442.36	136.80827
442.573	154.42263
442.786	122.20311
443	165.81516
443.213	141.07348
443.426	167.84729
443.639	175.71222
443.852	158.48841
444.065	168.89608
444.278	159.01298
444.491	157.93104
444.704	158.83266
444.917	170.9116
445.13	176.97368
445.343	144.846
445.556	215.03652
445.769	219.86233
445.982	172.64844
446.195	176.62965
446.408	165.52016
446.621	190.27288
446.834	159.4228
447.047	147.17487
447.26	147.97845
447.473	169.87928
447.686	161.84879
447.899	149.99549
448.111	164.61875
448.324	159.8654
448.537	160.60304
448.75	144.43597
448.963	150.56942
449.176	199.76845
449.388	195.51221
449.601	173.5332
449.814	152.73384
450.027	151.43849
450.239	170.50195
450.452	140.94225
450.665	135.97155
450.878	146.22367
451.09	172.77952
451.303	149.68392
451.516	133.90426
451.728	176.56412
451.941	105.38936
452.154	175.43371
452.366	176.46583
452.579	128.88306
452.792	199.53929
453.004	159.16052
453.217	161.53736
453.429	160.66861
453.642	142.9106
453.854	189.43777
454.067	204.13862
454.28	218.75001
454.492	132.72289
454.705	131.72196
454.917	157.16054
455.13	188.52076
455.342	184.44297
455.555	137.07076
455.767	227.71273
455.979	157.89825
456.192	185.90056
456.404	122.3016
456.617	175.95796
456.829	138.72769
457.041	188.14412
457.254	175.49924
457.466	158.39005
457.679	155.16041
457.891	202.12548
458.103	160.94727
458.315	160.09489
458.528	129.60512
458.74	152.24194
458.952	161.70127
459.165	157.79989
459.377	132.34549
459.589	112.00773
459.801	170.50195
460.014	174.46709
460.226	157.73432
460.438	160.75056
460.65	123.35211
460.862	177.21941
461.075	138.72769
461.287	153.88157
461.499	106.98251
461.711	118.78866
461.923	122.56423
462.135	171.2557
462.347	143.07462
462.559	152.88141
462.771	149.43795
462.983	128.39074
463.196	171.56702
463.408	178.7429
463.62	144.64919
463.832	190.86236
464.044	162.0127
464.256	186.53926
464.468	141.04067
464.68	169.22381
464.891	151.66805
465.103	147.48647
465.315	182.00257
465.527	149.71672
465.739	108.3785
465.951	143.46827
466.163	145.35444
466.375	119.16624
466.587	171.0263
466.799	145.09202
467.01	135.62701
467.222	142.97621
467.434	106.53907
467.646	132.93619
467.858	162.61916
468.069	151.56966
468.281	118.96924
468.493	105.68501
468.705	119.56023
468.916	140.31891
469.128	108.87118
469.34	115.32452
469.551	129.32615
469.763	96.25569
469.975	123.23722
470.186	121.49727
470.398	106.09562
470.61	119.80647
470.821	95.45059
471.033	121.8584
471.245	159.48837
471.456	110.00432
471.668	150.52022
471.879	114.74985
472.091	147.61766
472.302	169.91205
472.514	158.65234
472.725	145.17403
472.937	108.36208
473.148	105.60288
473.36	129.55589
473.571	160.50469
473.783	123.77887
473.994	132.69007
474.206	111.44941
474.417	121.2018
474.629	139.41669
474.84	153.32411
475.051	162.53721
475.263	102.44918
475.474	120.59443
475.685	138.94096
475.897	122.3016
476.108	165.76599
476.319	108.592
476.531	116.45739
476.742	155.42273
476.953	167.48676
477.165	210.4226
477.376	125.92898
477.587	139.72837
477.798	157.35726
478.01	124.12356
478.221	143.96033
478.432	141.28672
478.643	126.38853
478.854	125.89616
479.065	216.21442
479.277	174.2541
479.488	175.56477
479.699	167.66703
479.91	160.37355
480.121	179.41452
480.332	173.02528
480.543	176.82624
480.754	128.25945
480.965	142.2381
481.176	158.94741
481.387	195.36487
481.598	165.65127
481.809	200.65236
482.02	289.54106
482.231	585.22152
482.442	1303.36431
482.653	2674.80756
482.864	4356.80932
483.075	6709.17114
483.286	9446.85163
483.497	12756.66222
483.708	15233.61215
483.919	17441.56305
484.13	19394.89861
484.341	22077.77859
484.551	25889.69889
484.762	29314.12309
484.973	30308.18073
485.184	20803.24727
485.395	6810.12797
485.605	1940.46076
485.816	838.9612
486.027	416.54369
486.238	313.24085
486.449	340.50527
486.659	261.42853
486.87	233.05958
487.081	227.27121
487.291	208.91719
487.502	198.63898
487.713	169.60071
487.923	201.20888
488.134	160.40634
488.345	248.17903
488.555	204.33501
488.766	165.48738
488.976	206.77348
489.187	187.32533
489.398	182.42843
489.608	211.07711
489.819	167.04429
490.029	156.88184
490.24	202.25642
490.45	217.08145
490.661	189.50327
490.871	180.00423
491.082	155.42273
491.292	157.61956
491.503	169.87928
491.713	195.28301
491.924	190.97697
492.134	168.69943
492.344	168.40446
492.555	199.68661
492.765	193.95689
492.975	191.76292
493.186	189.66702
493.396	223.77145
493.607	149.96269
493.817	203.28755
494.027	170.87883
494.237	175.77775
494.448	172.59928
494.658	193.62944
494.868	151.24172
495.078	195.65956
495.289	207.77172
495.499	169.2402
495.709	134.15038
495.919	173.27105
496.129	171.82919
496.34	143.04182
496.55	136.44733
496.76	178.61185
496.97	192.4506
497.18	183.34564
497.39	144.846
497.6	184.01715
497.81	196.08521
498.021	209.16265
498.231	195.20116
498.441	180.56115
498.651	164.81542
498.861	135.23325
499.071	170.53472
499.281	205.00602
499.491	170.86244
499.701	170.46918
499.911	174.66369
500.121	173.0089
500.331	181.29825
500.54	230.83594
500.75	181.6586
500.96	175.17158
501.17	159.02938
501.38	179.59471
501.59	184.85242
501.8	169.61709
502.01	128.21022
502.219	178.84119
502.429	191.22258
502.639	215.59276
502.849	214.922
503.059	165.52016
503.268	169.45323
503.478	152.47149
503.688	185.03257
503.898	169.7318
504.107	165.86432
504.317	229.675
504.527	177.98936
504.736	187.24345
504.946	164.29096
505.156	194.4808
505.365	157.66874
505.575	171.91111
505.785	152.88141
505.994	192.59796
506.204	157.16054
506.413	178.56271
506.623	135.24966
506.832	173.92642
507.042	172.33713
507.251	195.41399
507.461	186.30999
507.67	174.549
507.88	163.37312
508.089	162.50443
508.299	177.64534
508.508	172.28797
508.718	120.29895
508.927	145.68245
509.137	189.45415
509.346	188.86464
509.555	146.10887
509.765	152.94699
509.974	292.62492
510.184	184.45935
510.393	151.61886
510.602	163.61897
510.812	189.4869
511.021	172.71398
511.23	224.52377
511.439	143.12383
511.649	154.58658
511.858	165.68405
512.067	171.15738
512.276	164.93015
512.486	319.77814
512.695	183.23099
512.904	119.69156
513.113	164.89737
513.322	179.48005
513.531	164.89737
513.741	201.89633
513.95	142.69737
514.159	188.84827
514.368	149.81511
514.577	150.81538
514.786	145.50204
514.995	154.38984
515.204	169.35491
515.413	131.21328
515.622	143.25505
515.831	159.02938
516.04	155.29157
516.249	133.28077
516.458	147.01087
516.667	184.90155
516.876	196.13432
517.085	144.37037
517.294	183.64045
517.503	160.4883
517.712	166.66736
517.921	168.79775
518.13	174.74561
518.339	174.59816
518.547	239.97466
518.756	133.60892
518.965	161.58653
519.174	143.14023
519.383	167.32288
519.591	136.49655
519.8	129.0964
520.009	160.70139
520.218	147.43727
520.426	150.76619
520.635	192.15588
520.844	172.61567
521.053	181.69136
521.261	192.41785
521.47	174.56539
521.679	161.91436
521.887	170.78051
522.096	156.04573
522.304	139.87601
522.513	130.40921
522.722	132.49317
522.93	182.8379
523.139	166.11015
523.347	144.53438
523.556	155.27518
523.764	160.34077
523.973	157.63596
524.182	141.1719
524.39	178.89033
524.598	139.66275
524.807	131.31173
525.015	152.86501
525.224	172.17328
525.432	151.01215
525.641	129.98255
525.849	139.4823
526.057	158.83266
526.266	184.75415
526.474	114.81553
526.683	142.2545
526.891	193.18738
527.099	138.26836
527.308	159.53755
527.516	126.76601
527.724	175.95796
527.932	125.58432
528.141	178.89033
528.349	202.5674
528.557	163.91399
528.765	127.07783
528.974	129.21127
529.182	131.36096
529.39	150.717
529.598	127.78353
529.806	133.29717
530.015	164.79903
530.223	154.53739
530.431	126.25723
530.639	118.47674
530.847	120.79142
531.055	154.66856
531.263	149.43795
531.471	106.0135
531.679	108.67411
531.887	157.73432
532.095	160.57025
532.303	182.78876
532.511	148.60162
532.719	136.6278
532.927	153.47167
533.135	174.66369
533.343	191.05884
533.551	181.29825
533.759	145.33803
533.967	196.01972
534.175	155.70145
534.383	195.77416
534.591	184.50849
534.798	180.52839
535.006	130.04819
535.214	154.521
535.422	135.61061
535.63	177.79278
535.837	137.02154
536.045	132.11577
536.253	152.84861
536.461	151.32371
536.668	150.56942
536.876	188.226
537.084	188.79914
537.292	178.26784
537.499	189.32315
537.707	168.6175
537.915	182.46118
538.122	206.54437
538.33	193.26924
538.538	175.43371
538.745	169.92844
538.953	218.91359
539.16	175.90881
539.368	148.35563
539.575	147.84725
539.783	170.10868
539.99	188.37338
540.198	164.76626
540.406	160.81613
540.613	169.71541
540.82	146.94527
541.028	179.56195
541.235	164.79903
541.443	200.4232
541.65	219.51882
541.858	194.26796
542.065	169.60071
542.272	160.43912
542.48	223.90229
542.687	139.67916
542.895	190.60037
543.102	150.6678
543.309	180.54477
543.516	177.38323
543.724	170.07591
543.931	165.19238
544.138	176.28562
544.346	166.42153
544.553	171.09184
544.76	162.99614
544.967	164.96293
545.174	173.27105
545.382	164.27457
545.589	186.96505
545.796	182.10084
546.003	140.18768
546.21	176.61327
546.417	220.33668
546.624	180.41373
546.832	174.79476
547.039	163.52063
547.246	207.36261
547.453	168.32253
547.66	137.72698
547.867	176.79347
548.074	167.68341
548.281	147.38807
548.488	170.58388
548.695	145.76445
548.902	170.60027
549.109	143.15663
549.316	151.29091
549.523	134.47853
549.73	154.521
549.936	160.42273
550.143	144.7476
550.35	130.01537
550.557	149.40515
550.764	134.15038
550.971	192.4506
551.178	143.87832
551.384	176.89177
551.591	187.66922
551.798	191.9594
552.005	152.9306
552.211	167.50315
552.418	155.5375
552.625	130.99995
552.832	170.94437
553.038	165.11043
553.245	175.00774
553.452	188.14412
553.658	149.76592
553.865	153.14375
554.072	178.30061
554.278	160.0621
554.485	201.83086
554.691	198.32795
554.898	154.48821
555.105	191.43544
555.311	163.94677
555.518	185.32736
555.724	188.93014
555.931	136.61139
556.137	128.71895
556.344	171.82919
556.55	167.92923
556.757	174.27048
556.963	174.3524
557.17	181.15083
557.376	193.30199
557.582	215.1674
557.789	151.11054
557.995	158.79988
558.202	145.19043
558.408	182.70687
558.614	148.22444
558.821	185.47476
559.027	180.6922
559.233	172.82867
559.439	222.692
559.646	164.81542
559.852	200.70147
560.058	192.66345
560.264	178.89033
560.471	178.02212
560.677	194.41531
560.883	208.40992
561.089	200.86515
561.295	168.63388
561.502	171.40317
561.708	166.24126
561.914	181.56032
562.12	189.2904
562.326	194.31708
562.532	192.66345
562.738	196.18343
562.944	152.37311
563.15	191.81204
563.356	142.2381
563.562	171.64895
563.768	189.01202
563.974	150.58582
564.18	181.80602
564.386	163.47146
564.592	153.45528
564.798	162.17661
565.004	208.75356
565.21	130.50767
565.416	199.1628
565.622	178.661
565.828	186.88317
566.034	215.64184
566.239	178.79205
566.445	224.08219
566.651	205.23514
