Data from deutdg_200ms_20_SR4014911__0__16-45-59-520.txt Node

Date: Sun Jul 13 16:45:59 EDT 2025
User: cryst
Spectrometer: SR401491
Trigger mode: 0
Integration Time (sec): 2.000000E-1
Scans to average: 20
Electric dark correction enabled: true
Nonlinearity correction enabled: true
Boxcar width: 0
XAxis mode: Wavelengths
Number of Pixels in Spectrum: 3648
>>>>>Begin Spectral Data<<<<<
344.912	-383.65302
345.129	-361.66942
345.347	-379.12206
345.565	-341.74721
345.783	164.40175
346.001	92.59084
346.219	84.29283
346.437	134.36794
346.654	238.13178
346.872	66.54935
347.09	-34.98293
347.308	200.2916
347.526	142.32602
347.743	48.08809
347.961	314.30811
348.179	159.6959
348.397	195.75386
348.614	259.48576
348.832	276.19119
349.05	316.67531
349.268	341.46567
349.485	345.01312
349.703	252.80088
349.921	432.00862
350.138	392.70136
350.356	405.95249
350.574	230.63253
350.791	309.84218
351.009	398.22785
351.227	321.46293
351.444	315.22273
351.662	354.84702
351.879	275.43696
352.097	342.3257
352.314	321.19398
352.532	322.21597
352.75	348.29145
352.967	348.02275
353.185	362.15316
353.402	287.55612
353.62	273.38966
353.837	407.18611
354.055	347.4316
354.272	399.89096
354.49	514.0531
354.707	505.71407
354.925	295.30973
355.142	375.09567
355.359	460.50542
355.577	472.44264
355.794	404.1288
356.012	511.80819
356.229	429.38257
356.446	300.31617
356.664	392.75502
356.881	480.25554
357.099	353.77244
357.316	337.11139
357.533	457.82828
357.751	314.0929
357.968	660.59109
358.185	460.71958
358.402	377.94119
358.62	480.7906
358.837	452.15196
359.054	320.38713
359.272	288.47159
359.489	311.94071
359.706	387.60322
359.923	437.09928
360.141	404.87974
360.358	430.50805
360.575	451.9913
360.792	369.51121
361.009	384.65126
361.226	405.5234
361.444	556.35561
361.661	406.91794
361.878	412.38819
362.095	326.94891
362.312	440.20685
362.529	409.27777
362.746	447.01024
362.963	292.45621
363.181	335.01466
363.398	406.32795
363.615	585.32592
363.832	324.95901
364.049	315.22273
364.266	551.12428
364.483	441.59979
364.7	354.09482
364.917	258.24594
365.134	424.55864
365.351	391.52081
365.568	469.07071
365.785	375.79365
366.002	311.45645
366.219	350.54845
366.436	485.87319
366.652	529.60267
366.869	366.12781
367.086	508.92165
367.303	291.37934
367.52	354.90075
367.737	508.81474
367.954	499.08402
368.171	379.7128
368.387	632.80638
368.604	382.34317
368.821	413.35343
369.038	347.0554
369.255	448.67069
369.471	305.32175
369.688	508.54745
369.905	496.51717
370.122	449.15273
370.339	421.93195
370.555	359.95077
370.772	328.45468
370.989	626.41575
371.205	343.2932
371.422	383.73878
371.639	319.25749
371.855	566.70898
372.072	361.56229
372.289	320.92504
372.505	536.65354
372.722	327.05646
372.939	405.04066
373.155	526.23692
373.372	368.97419
373.589	484.37525
373.805	387.44221
374.022	362.09945
374.238	330.55188
374.455	451.66996
374.671	503.62896
374.888	434.84878
375.104	266.65412
375.321	293.47921
375.537	361.45486
375.754	443.42124
375.97	421.66391
376.187	607.82254
376.403	344.69064
376.62	412.97806
376.836	340.17558
377.053	397.20847
377.269	368.59827
377.486	338.88543
377.702	234.57123
377.918	280.60842
378.135	380.51804
378.351	460.3448
378.568	337.16515
378.784	405.89886
379	426.0595
379.217	374.55875
379.433	327.11024
379.649	549.84301
379.865	345.76556
380.082	529.17529
380.298	315.92213
380.514	567.8295
380.731	383.14834
380.947	303.86861
381.163	450.33104
381.379	387.49588
381.596	385.13433
381.812	514.21344
382.028	463.2894
382.244	384.00716
382.46	323.07656
382.676	559.18444
382.893	436.24197
383.109	408.09788
383.325	381.26958
383.541	510.73913
383.757	223.40117
383.973	405.63067
384.189	527.35887
384.405	402.89506
384.622	387.22753
384.838	469.07071
385.054	442.99267
385.27	553.09948
385.486	384.38289
385.702	303.65332
385.918	437.58151
386.134	395.16963
386.35	487.10358
386.566	550.53704
386.782	522.92424
386.998	522.44334
387.214	451.34863
387.43	429.27538
387.646	566.0153
387.861	491.97119
388.077	433.40194
388.293	473.78061
388.509	516.93917
388.725	435.00953
388.941	468.4284
389.157	378.53174
389.373	440.5283
389.588	499.61876
389.804	453.81213
390.02	599.13495
390.236	352.53662
390.452	416.51704
390.668	357.47959
390.883	594.55037
391.099	470.3553
391.315	522.92424
391.531	365.4296
391.746	427.72108
391.962	464.30656
392.178	466.18019
392.393	405.36249
392.609	641.32527
392.825	410.404
393.041	364.78508
393.256	488.38742
393.472	521.58839
393.687	506.30215
393.903	576.68559
394.119	466.0196
394.334	520.1456
394.55	571.13749
394.766	469.92711
394.981	566.70898
395.197	568.41643
395.412	595.19012
395.628	596.68281
395.843	634.77657
396.059	868.03747
396.274	608.83505
396.49	762.80067
396.705	569.75031
396.921	375.79365
397.136	509.50967
397.352	511.64784
397.567	432.22298
397.783	454.9367
397.998	490.52704
398.214	466.18019
398.429	373.16271
398.644	712.90346
398.86	454.9367
399.075	538.52283
399.29	419.1442
399.506	393.45259
399.721	461.73683
399.936	440.90333
400.152	405.04066
400.367	471.96096
400.582	480.95111
400.798	557.31638
401.013	377.24326
401.228	550.32349
401.444	507.37136
401.659	483.62625
401.874	626.14945
402.089	511.05986
402.304	532.96805
402.52	509.29585
402.735	390.98419
402.95	410.61851
403.165	539.80456
403.38	622.0481
403.596	459.64876
403.811	557.52988
404.026	712.53161
404.241	424.93386
404.456	440.90333
404.671	632.11412
404.886	575.08528
405.101	423.86178
405.316	522.01587
405.532	647.87266
405.747	548.61507
405.962	547.44048
406.177	525.64921
406.392	481.11163
406.607	626.30923
406.822	612.1921
407.037	618.95844
407.252	821.31063
407.467	751.97814
407.682	782.262
407.896	886.3304
408.111	842.37978
408.326	905.56489
408.541	1127.83039
408.756	1241.62759
408.971	1304.31597
409.186	1348.47637
409.401	1167.98482
409.616	641.59145
409.83	502.50616
410.045	482.55622
410.26	420.85977
410.475	413.5143
410.69	526.82461
410.905	500.04654
411.119	336.95011
411.334	438.76026
411.549	470.08768
411.764	575.40535
411.978	617.94624
412.193	485.12423
412.408	432.22298
412.623	343.93818
412.837	624.55158
413.052	541.03284
413.267	538.36261
413.481	443.79623
413.696	436.56346
413.911	434.84878
414.125	429.061
414.34	397.26213
414.554	428.09627
414.769	545.19795
414.984	460.07709
415.198	346.6792
415.413	402.5732
415.627	496.57065
415.842	436.93854
416.056	544.39701
416.271	433.29476
416.485	539.32392
416.7	509.24239
416.914	443.42124
417.129	418.92974
417.343	507.85249
417.558	468.6425
417.772	567.93622
417.987	530.83134
418.201	436.24197
418.415	345.8193
418.63	479.2389
418.844	485.12423
419.059	547.97439
419.273	477.5266
419.487	650.4806
419.702	514.85481
419.916	676.01691
420.13	468.58898
420.345	462.43282
420.559	462.59343
420.773	425.36268
420.988	487.95948
421.202	619.27807
421.416	458.31018
421.63	520.19904
421.845	539.21711
422.059	461.36206
422.273	375.41782
422.487	523.6723
422.701	628.65261
422.916	624.71137
423.13	466.66196
423.344	430.40086
423.558	406.75703
423.772	373.86073
423.986	470.99757
424.201	487.8525
424.415	628.9189
424.629	519.93185
424.843	483.84025
425.057	581.37939
425.271	339.31549
425.485	359.68217
425.699	381.32326
425.913	608.30216
426.127	498.76318
426.341	466.87608
426.555	482.98424
426.769	554.80766
426.983	612.72494
427.197	552.19197
427.411	494.21753
427.625	611.1797
427.839	463.34294
428.053	469.76654
428.267	439.34962
428.481	575.352
428.695	426.1131
428.908	340.06807
429.122	517.63392
429.336	515.6565
429.55	461.4156
429.764	614.21682
429.978	798.10928
430.191	809.39407
430.405	1085.89992
430.619	1138.75224
430.833	1555.46028
431.047	1983.92894
431.26	2687.83123
431.474	3266.57267
431.688	3610.72831
431.901	3813.86891
432.115	4592.79805
432.329	5095.19081
432.543	5529.29145
432.756	6551.43554
432.97	6756.21716
433.184	4752.56522
433.397	2141.52272
433.611	808.65245
433.824	674.52784
434.038	534.57049
434.252	508.44053
434.465	477.68713
434.679	455.6864
434.892	517.95457
435.106	309.51931
435.319	420.53811
435.533	615.22914
435.747	563.18708
435.96	356.4051
436.174	600.41425
436.387	565.7485
436.601	527.67942
436.814	655.74909
437.027	406.22068
437.241	581.6994
437.454	369.35011
437.668	602.17321
437.881	593.69735
438.095	490.15261
438.308	508.54745
438.521	684.7373
438.735	504.80519
438.948	538.20239
439.161	538.09557
439.375	512.71686
439.588	596.84274
439.801	591.88461
440.015	494.53842
440.228	606.86329
440.441	681.49401
440.654	804.94417
440.868	713.32843
441.081	430.72242
441.294	599.50808
441.507	600.89397
441.721	448.67069
441.934	572.20451
442.147	475.33257
442.36	539.00349
442.573	597.58906
442.786	413.40705
443	632.54013
443.213	515.70995
443.426	549.36251
443.639	690.79769
443.852	560.25186
444.065	662.2404
444.278	561.10577
444.491	611.28627
444.704	522.2296
444.917	654.04623
445.13	604.03866
445.343	520.84028
445.556	807.91083
445.769	805.42097
445.982	631.4751
446.195	684.68414
446.408	631.68811
446.621	721.98599
446.834	580.89938
447.047	578.71254
447.26	530.7245
447.473	586.71242
447.686	633.28562
447.899	586.60577
448.111	674.04919
448.324	625.13748
448.537	580.20601
448.75	564.68127
448.963	535.85239
449.176	707.00648
449.388	686.81072
449.601	645.63711
449.814	539.27051
450.027	579.40595
450.239	596.6295
450.452	579.77931
450.665	490.47355
450.878	568.30972
451.09	624.92442
451.303	594.49705
451.516	497.6402
451.728	636.79988
451.941	433.29476
452.154	669.74107
452.366	665.06
452.579	525.70264
452.792	724.95985
453.004	633.55187
453.217	538.46942
453.429	607.23633
453.642	545.7853
453.854	666.07074
454.067	773.40767
454.28	771.44562
454.492	444.43906
454.705	540.92604
454.917	554.06034
455.13	744.07128
455.342	670.5921
455.555	496.30326
455.767	812.94298
455.979	643.18848
456.192	688.56505
456.404	494.8593
456.617	626.25597
456.829	562.27986
457.041	683.03594
457.254	625.98967
457.466	542.47467
457.679	545.35814
457.891	701.95868
458.103	630.78281
458.315	616.02831
458.528	520.25247
458.74	566.65562
458.952	600.25434
459.165	593.11089
459.377	499.03055
459.589	407.13247
459.801	638.82307
460.014	619.9706
460.226	598.06882
460.438	609.58109
460.65	467.8396
460.862	636.95961
461.075	558.70409
461.287	505.44676
461.499	381.64534
461.711	387.2812
461.923	545.99887
462.135	624.44506
462.347	510.8995
462.559	582.87273
462.771	619.2248
462.983	473.35246
463.196	627.16139
463.408	641.75115
463.62	597.26921
463.832	705.62505
464.044	644.67897
464.256	652.71582
464.468	505.66061
464.68	611.39284
464.891	596.25633
465.103	508.92165
465.315	718.69319
465.527	499.88612
465.739	427.0779
465.951	523.72573
466.163	549.14896
466.375	454.77605
466.587	656.28121
466.799	481.91419
467.01	490.90145
467.222	533.07489
467.434	456.43607
467.646	484.58924
467.858	562.11976
468.069	555.28806
468.281	410.13585
468.493	382.61156
468.705	431.84785
468.916	493.46877
469.128	402.09042
469.34	434.90236
469.551	439.45678
469.763	303.54568
469.975	451.34863
470.186	466.44784
470.398	422.95049
470.61	427.39949
470.821	361.23999
471.033	450.7595
471.245	590.55165
471.456	351.46195
471.668	497.10543
471.879	415.23019
472.091	593.11089
472.302	578.60587
472.514	562.86689
472.725	485.44521
472.937	416.62427
473.148	373.2164
473.36	478.65031
473.571	558.97096
473.783	460.93374
473.994	489.1363
474.206	422.14638
474.417	446.42103
474.629	520.62653
474.84	577.5924
475.051	625.61683
475.263	367.41677
475.474	448.77781
475.685	499.99306
475.897	473.03135
476.108	591.45807
476.319	384.75861
476.531	439.83181
476.742	584.41933
476.953	611.76583
477.165	776.64215
477.376	505.39329
477.587	523.29827
477.798	553.41977
478.01	448.45644
478.221	521.64182
478.432	523.03111
478.643	519.4509
478.854	422.73606
479.065	791.32605
479.277	664.79401
479.488	639.08927
479.699	651.27891
479.91	569.48354
480.121	684.68414
480.332	591.45807
480.543	658.3032
480.754	463.39647
480.965	528.10682
481.176	591.51139
481.387	745.66342
481.598	576.36554
481.809	795.93667
482.02	1161.47889
482.231	2552.95783
482.442	5373.09546
482.653	10115.21684
482.864	15444.14972
483.075	23037.8408
483.286	31778.35834
483.497	42397.16185
483.708	50229.63473
483.919	57591.15805
484.13	62946.15223
484.341	63206.54059
484.551	63206.54059
484.762	63206.54059
484.973	63206.54059
485.184	63206.54059
485.395	23998.6802
485.605	7843.92916
485.816	3858.61925
486.027	1902.97928
486.238	1431.13543
486.449	1386.64224
486.659	1152.45278
486.87	968.42846
487.081	973.70177
487.291	874.43578
487.502	800.81161
487.713	714.01899
487.923	766.72564
488.134	687.66131
488.345	969.58865
488.555	794.1349
488.766	643.34818
488.976	816.06785
489.187	779.29314
489.398	775.52867
489.608	792.22703
489.819	641.69792
490.029	625.08421
490.24	822.47559
490.45	798.95709
490.661	763.22501
490.871	685.32213
491.082	560.83893
491.292	607.07646
491.503	719.70231
491.713	766.08919
491.924	673.62372
492.134	644.25312
492.344	644.09343
492.555	693.08334
492.765	750.43937
492.975	744.44279
493.186	778.86899
493.396	785.54866
493.607	540.97944
493.817	828.61745
494.027	649.68227
494.237	603.61228
494.448	622.31444
494.658	743.22211
494.868	560.3586
495.078	708.70662
495.289	839.46897
495.499	655.42981
495.709	567.456
495.919	630.5698
496.129	634.40384
496.34	503.68243
496.55	461.36206
496.76	688.61821
496.97	762.1111
497.18	613.95042
497.39	604.19855
497.6	737.27734
497.81	767.0969
498.021	754.15354
498.231	784.54149
498.441	661.81478
498.651	627.21465
498.861	491.48981
499.071	666.70909
499.281	758.66305
499.491	648.93715
499.701	665.96435
499.911	687.12969
500.121	615.8152
500.331	690.00034
500.54	866.55671
500.75	664.68761
500.96	658.3032
501.17	556.08873
501.38	685.80061
501.59	732.07481
501.8	607.87583
502.01	454.24054
502.219	636.26744
502.429	753.62296
502.639	818.39807
502.849	769.16526
503.059	610.3804
503.268	657.61148
503.478	570.23049
503.688	710.19417
503.898	605.15788
504.107	609.74096
504.317	846.18994
504.527	705.73132
504.736	711.25666
504.946	616.29469
505.156	764.86929
505.365	584.04602
505.575	594.55037
505.785	595.61661
505.994	733.03044
506.204	599.98782
506.413	618.4257
506.623	480.63008
506.832	642.23027
507.042	651.06603
507.251	718.00273
507.461	682.7701
507.67	620.71639
507.88	563.4539
508.089	617.20039
508.299	650.26772
508.508	653.83337
508.718	488.11996
508.927	511.38057
509.137	727.61486
509.346	680.21788
509.555	570.44391
509.765	571.8844
509.974	1066.07485
510.184	701.37415
510.393	582.12607
510.602	599.29486
510.812	743.69977
511.021	619.33134
511.23	836.76964
511.439	532.64756
511.649	584.84596
511.858	681.60035
512.067	647.18072
512.276	671.12398
512.486	1193.10661
512.695	637.54528
512.904	495.71499
513.113	629.71773
513.322	642.01733
513.531	659.36735
513.741	726.55288
513.95	510.68568
514.159	666.70909
514.368	543.16886
514.577	609.42123
514.786	537.13423
514.995	572.04445
515.204	619.2248
515.413	547.06673
515.622	532.43389
515.831	602.22651
516.04	602.43971
516.249	467.41137
516.458	539.91137
516.667	644.51928
516.876	711.15041
517.085	603.29249
517.294	663.73003
517.503	611.39284
517.712	619.2248
517.921	648.13878
518.13	635.78824
518.339	700.09878
518.547	870.7873
518.756	541.78047
518.965	592.89763
519.174	590.87157
519.383	596.25633
519.591	512.93067
519.8	449.84901
520.009	621.51542
520.218	573.48488
520.426	584.15268
520.635	667.71978
520.844	595.19012
521.053	657.07938
521.261	711.25666
521.47	648.03233
521.679	642.92231
521.887	603.66558
522.096	559.66479
522.304	505.2329
522.513	479.77398
522.722	520.25247
522.93	689.4156
523.139	593.85729
523.347	524.04632
523.556	503.14777
523.764	542.52807
523.973	552.67242
524.182	486.72912
524.39	679.84566
524.598	541.56686
524.807	447.76013
525.015	579.88598
525.224	633.87136
525.432	563.50727
525.641	448.51
525.849	553.74005
526.057	577.53906
526.266	659.63339
526.474	461.52267
526.683	514.90826
526.891	630.78281
527.099	536.81377
527.308	608.35545
527.516	489.45725
527.724	647.87266
527.932	479.07838
528.141	686.5449
528.349	797.73836
528.557	607.50279
528.765	531.36553
528.974	459.75584
529.182	530.13688
529.39	552.35212
529.598	518.3821
529.806	480.7906
530.015	639.08927
530.223	517.20638
530.431	467.0902
530.639	443.58195
530.847	471.90744
531.055	554.06034
531.263	571.03078
531.471	393.98918
531.679	417.3213
531.887	577.16567
532.095	603.61228
532.303	679.42027
532.511	549.20235
532.719	515.0686
532.927	565.80186
533.135	607.12975
533.343	708.75974
533.551	602.54631
533.759	571.40424
533.967	689.1498
534.175	584.09935
534.383	734.67618
534.591	697.9199
534.798	647.50008
535.006	504.69827
535.214	547.01334
535.422	487.74551
535.63	644.99835
535.837	464.5207
536.045	476.67041
536.253	579.45928
536.461	583.88603
536.668	554.00696
536.876	645.05158
537.084	704.98745
537.292	642.65614
537.499	716.88733
537.707	611.39284
537.915	708.75974
538.122	723.31364
538.33	730.64132
538.538	621.19581
538.745	680.64326
538.953	743.59363
539.16	649.62905
539.368	551.49798
539.575	558.65072
539.783	588.15219
539.99	774.15003
540.198	607.28963
540.406	583.24605
540.613	579.29927
540.82	535.10462
541.028	647.07427
541.235	636.37393
541.443	736.428
541.65	871.95062
541.858	685.9601
542.065	596.46957
542.272	555.39482
542.48	834.96997
542.687	558.59735
542.895	725.11915
543.102	597.64236
543.309	643.93373
543.516	682.55742
543.724	619.11825
543.931	584.79263
544.138	716.83421
544.346	586.0725
544.553	640.95261
544.76	639.67491
544.967	597.64236
545.174	639.19575
545.382	606.59683
545.589	652.71582
545.796	736.95884
546.003	506.24869
546.21	666.70909
546.417	826.12907
546.624	687.34234
546.832	654.57839
547.039	646.38231
547.246	745.87569
547.453	652.92869
547.66	515.22894
547.867	683.03594
548.074	617.04056
548.281	571.671
548.488	604.19855
548.695	577.00565
548.902	622.2079
549.109	552.61903
549.316	484.42875
549.523	532.91464
549.73	553.04609
549.936	600.20104
550.143	535.95921
550.35	499.99306
550.557	503.46857
550.764	493.73618
550.971	658.19678
551.178	559.98501
551.384	655.32338
551.591	677.87817
551.798	713.80651
552.005	571.35089
552.211	648.13878
552.418	622.10137
552.625	480.73709
552.832	648.08556
553.038	645.7968
553.245	668.67725
553.452	695.31568
553.658	547.86761
553.865	562.06639
554.072	598.01552
554.278	660.11224
554.485	814.10822
554.691	778.44484
554.898	570.23049
555.105	721.50802
555.311	600.78737
555.518	718.26829
555.724	686.81072
555.931	461.46914
556.137	512.50306
556.344	608.24886
556.55	645.21127
556.757	645.74357
556.963	599.13495
557.17	645.15804
557.376	680.96229
557.582	774.52121
557.789	567.13585
557.995	562.81352
558.202	572.9514
558.408	625.9364
558.614	517.58048
558.821	654.73803
559.027	684.09931
559.233	663.46403
559.439	830.31157
559.646	647.3404
559.852	741.47064
560.058	697.06956
560.264	696.80383
560.471	610.59355
560.677	737.27734
560.883	778.92201
561.089	767.73333
561.295	615.54881
561.502	665.85796
561.708	605.9573
561.914	707.59091
562.12	667.29423
562.326	728.25203
562.532	717.04667
562.738	751.44754
562.944	615.60208
563.15	679.31392
563.356	535.53192
563.562	661.76158
563.768	693.08334
563.974	536.4399
564.18	697.3353
564.386	617.99951
564.592	568.52314
564.798	583.08606
565.004	757.54899
565.21	540.39201
565.416	682.2384
565.622	698.66392
