Data from deut_100ms_40_SR4014911__0__16-35-16-137.txt Node

Date: Sun Jul 13 16:35:16 EDT 2025
User: cryst
Spectrometer: SR401491
Trigger mode: 0
Integration Time (sec): 1.000000E-1
Scans to average: 40
Electric dark correction enabled: true
Nonlinearity correction enabled: true
Boxcar width: 0
XAxis mode: Wavelengths
Number of Pixels in Spectrum: 3648
>>>>>Begin Spectral Data<<<<<
344.912	-175.11476
345.129	-171.82776
345.347	-163.25617
345.565	-165.69316
345.783	79.17537
346.001	38.39989
346.219	30.9548
346.437	47.90703
346.654	102.57583
346.872	36.33504
347.09	-26.09393
347.308	112.11462
347.526	63.08431
347.743	20.97946
347.961	166.97972
348.179	62.05285
348.397	88.6139
348.614	120.37709
348.832	160.11062
349.05	167.52052
349.268	164.08625
349.485	192.35907
349.703	131.88621
349.921	194.73636
350.138	178.01
350.356	169.49436
350.574	105.39445
350.791	159.56968
351.009	165.5195
351.227	157.05414
351.444	125.73958
351.662	163.19381
351.879	115.93463
352.097	164.24851
352.314	144.98722
352.532	167.52052
352.75	192.35907
352.967	188.4415
353.185	199.57137
353.402	136.81335
353.62	127.7164
353.837	196.84334
354.055	174.17152
354.272	204.99964
354.49	237.2237
354.707	236.73819
354.925	128.31213
355.142	169.5214
355.359	206.32279
355.577	200.35462
355.794	182.06415
356.012	239.24661
356.229	192.76431
356.446	146.61088
356.664	180.52364
356.881	214.23339
357.099	171.38695
357.316	172.38726
357.533	193.62879
357.751	148.50503
357.968	308.72111
358.185	213.6395
358.402	176.4152
358.62	236.79213
358.837	217.01373
359.054	153.3751
359.272	148.47797
359.489	154.91711
359.706	189.92754
359.923	229.94006
360.141	179.22631
360.358	217.7695
360.575	191.06228
360.792	184.06399
361.009	176.82067
361.226	168.3317
361.444	256.52987
361.661	216.47388
361.878	171.30584
362.095	172.79279
362.312	232.28721
362.529	235.14671
362.746	204.7026
362.963	146.09673
363.181	152.64464
363.398	175.41503
363.615	276.06548
363.832	142.60568
364.049	144.52716
364.266	270.46214
364.483	204.24352
364.7	169.92696
364.917	109.9741
365.134	211.34479
365.351	176.4963
365.568	209.99488
365.785	162.46361
366.002	136.65093
366.219	157.70333
366.436	207.07885
366.652	249.95214
366.869	188.84679
367.086	214.55733
367.303	126.82279
367.52	149.69557
367.737	234.6072
367.954	224.73245
368.171	169.68362
368.387	307.61793
368.604	192.54818
368.821	203.19033
369.038	165.24908
369.255	215.12421
369.471	134.18746
369.688	248.46924
369.905	240.37937
370.122	200.46265
370.339	193.57476
370.555	164.00512
370.772	148.61326
370.989	304.38888
371.205	192.4131
371.422	194.89844
371.639	156.89184
371.855	273.74885
372.072	185.71239
372.289	144.66247
372.505	254.72384
372.722	151.61656
372.939	195.08754
373.155	256.85333
373.372	163.35608
373.589	203.56841
373.805	181.22634
374.022	156.24263
374.238	166.43891
374.455	197.54563
374.671	235.76712
374.888	206.21478
375.104	126.49783
375.321	132.3194
375.537	167.79092
375.754	211.93874
375.97	189.87351
376.187	281.34456
376.403	166.95268
376.62	192.49415
376.836	179.84796
377.053	188.4415
377.269	188.76574
377.486	144.77072
377.702	126.47075
377.918	132.56307
378.135	180.06418
378.351	229.7512
378.568	196.7353
378.784	195.6278
379	186.7122
379.217	173.54975
379.433	146.58382
379.649	246.63574
379.865	167.41236
380.082	240.64907
380.298	130.85736
380.514	257.20373
380.731	181.7939
380.947	136.43437
381.163	201.38091
381.379	181.3885
381.596	191.87278
381.812	245.39536
382.028	205.59371
382.244	184.11804
382.46	163.32903
382.676	259.25218
382.893	208.6989
383.109	184.71255
383.325	175.19877
383.541	226.5134
383.757	117.12658
383.973	203.56841
384.189	254.7508
384.405	198.19388
384.622	209.58989
384.838	220.41454
385.054	213.09959
385.27	241.64694
385.486	172.14395
385.702	144.12123
385.918	207.96989
386.134	191.33245
386.35	219.01108
386.566	231.63974
386.782	236.38753
386.998	247.12109
387.214	190.60299
387.43	185.55026
387.646	268.14505
387.861	233.44723
388.077	220.11766
388.293	216.25794
388.509	246.71663
388.725	211.69576
388.941	241.99753
389.157	165.89808
389.373	197.89677
389.588	237.54738
389.804	209.0229
390.02	299.24856
390.236	156.75659
390.452	171.30584
390.668	189.11699
390.883	281.77547
391.099	219.68583
391.315	237.35857
391.531	190.22474
391.746	194.68234
391.962	218.28233
392.178	221.54806
392.393	192.00786
392.609	295.56097
392.825	231.01923
393.041	173.38754
393.256	236.98095
393.472	253.78035
393.687	236.00989
393.903	266.20502
394.119	221.84492
394.334	213.26156
394.55	297.57978
394.766	215.50212
394.981	280.5366
395.197	261.70473
395.412	312.40703
395.628	257.50023
395.843	319.40094
396.059	398.93423
396.274	272.10554
396.49	335.91072
396.705	258.9018
396.921	168.52098
397.136	256.82637
397.352	228.69895
397.567	197.43759
397.783	225.19119
397.998	242.56386
398.214	227.26892
398.429	180.25337
398.644	326.50074
398.86	220.79239
399.075	260.16854
399.29	217.01373
399.506	166.8986
399.721	220.7654
399.936	237.76316
400.152	198.00481
400.367	221.2242
400.582	234.90393
400.798	272.59046
401.013	186.82028
401.228	242.24025
401.444	244.50549
401.659	216.25794
401.874	289.04598
402.089	235.11973
402.304	250.32959
402.52	229.77818
402.735	187.44176
402.95	179.65876
403.165	258.47055
403.38	308.74801
403.596	225.0023
403.811	264.96549
404.026	306.40708
404.241	218.90312
404.456	217.36462
404.671	298.71026
404.886	253.24119
405.101	185.55026
405.316	245.31447
405.532	288.26516
405.747	254.15775
405.962	290.90371
406.177	258.87484
406.392	204.05449
406.607	289.26138
406.822	271.53979
407.037	280.6982
407.252	366.02934
407.467	324.99487
407.682	336.44834
407.896	369.76182
408.111	370.03032
408.326	389.16853
408.541	494.1997
408.756	526.96708
408.971	563.64957
409.186	589.33417
409.401	495.29606
409.616	290.60756
409.83	225.56897
410.045	213.34255
410.26	177.1991
410.475	190.87316
410.69	222.89742
410.905	238.54535
411.119	176.22598
411.334	206.18778
411.549	197.76172
411.764	247.25591
411.978	273.69497
412.193	236.44148
412.408	218.3903
412.623	176.82067
412.837	316.54978
413.052	239.24661
413.267	257.44632
413.481	229.64327
413.696	198.89614
413.911	206.86283
414.125	202.11009
414.34	184.4153
414.554	191.35947
414.769	236.25266
414.984	216.09598
415.198	157.73038
415.413	171.46805
415.627	236.63029
415.842	213.80147
416.056	248.7119
416.271	193.33162
416.485	244.55943
416.7	244.50549
416.914	219.46991
417.129	190.79211
417.343	220.41454
417.558	230.39871
417.772	272.2133
417.987	236.00989
418.201	198.13986
418.415	172.25209
418.63	251.30016
418.844	216.06898
419.059	272.50964
419.273	219.90175
419.487	298.38727
419.702	235.55133
419.916	320.63815
420.13	218.12039
420.345	201.51595
420.559	202.38016
420.773	222.65454
420.988	216.41989
421.202	289.63832
421.416	220.95432
421.63	226.99909
421.845	222.35768
422.059	220.0367
422.273	181.44255
422.487	233.8249
422.701	283.01428
422.916	295.4533
423.13	216.66283
423.344	195.41169
423.558	173.54975
423.772	194.14206
423.986	231.10017
424.201	200.38163
424.415	293.16513
424.629	264.93855
424.843	224.75944
425.057	269.86941
425.271	177.63158
425.485	171.14362
425.699	183.11814
425.913	268.92642
426.127	251.59671
426.341	218.41729
426.555	219.38894
426.769	254.9934
426.983	280.18648
427.197	249.25114
427.411	240.67604
427.625	292.54595
427.839	202.70423
428.053	217.36462
428.267	194.43921
428.481	265.45053
428.695	189.44121
428.908	152.83402
429.122	224.16576
429.336	238.41049
429.55	224.16576
429.764	263.99539
429.978	357.83774
430.191	359.15392
430.405	480.85302
430.619	463.91398
430.833	642.7981
431.047	819.3866
431.26	1134.35061
431.474	1382.0843
431.688	1542.41723
431.901	1666.44444
432.115	1997.75266
432.329	2269.3446
432.543	2488.17331
432.756	2976.34998
432.97	3065.56442
433.184	2114.99514
433.397	894.3196
433.611	324.51082
433.824	316.71118
434.038	262.40542
434.252	223.54509
434.465	229.42743
434.679	202.51519
434.892	254.53514
435.106	158.19022
435.319	183.55053
435.533	298.06428
435.747	257.31155
435.96	161.24658
436.174	289.90755
436.387	274.36843
436.601	277.38534
436.814	299.03324
437.027	178.30732
437.241	276.9005
437.454	189.46823
437.668	262.18983
437.881	282.5026
438.095	199.40932
438.308	250.65311
438.521	343.30216
438.735	235.03881
438.948	245.93466
439.161	240.19058
439.375	232.39512
439.588	244.90998
439.801	271.32426
440.015	254.13079
440.228	287.51125
440.441	309.93186
440.654	365.38484
440.868	313.83285
441.081	205.4587
441.294	278.75901
441.507	272.69822
441.721	209.2389
441.934	289.85371
442.147	227.10702
442.36	226.29753
442.573	260.03378
442.786	186.92837
443	277.25067
443.213	231.9365
443.426	274.988
443.639	312.62225
443.852	274.50312
444.065	303.04333
444.278	250.51831
444.491	296.18009
444.704	244.4246
444.917	274.23374
445.13	292.84208
445.343	220.49551
445.556	351.95451
445.769	361.32952
445.982	292.62672
446.195	328.97451
446.408	286.11107
446.621	337.06659
446.834	269.95024
447.047	270.30049
447.26	247.41769
447.473	272.64434
447.686	287.80743
447.899	276.92744
448.111	303.60847
448.324	286.75731
448.537	272.50964
448.75	238.05986
448.963	255.23601
449.176	329.6467
449.388	323.00484
449.601	282.63725
449.814	252.80986
450.027	257.52718
450.239	288.64211
450.452	274.17986
450.665	237.08884
450.878	264.66907
451.09	279.16302
451.303	269.14196
451.516	237.38554
451.728	293.75738
451.941	195.41169
452.154	314.29017
452.366	315.9042
452.579	222.78947
452.792	326.01672
453.004	290.12294
453.217	257.76977
453.429	274.71862
453.642	248.63102
453.854	315.04339
454.067	356.03797
454.28	368.92944
454.492	195.51975
454.705	222.3307
454.917	245.69198
455.13	338.38369
455.342	305.59981
455.555	228.0514
455.767	352.73364
455.979	282.44874
456.192	324.5915
456.404	230.88434
456.617	286.32648
456.829	246.63574
457.041	305.46527
457.254	291.81907
457.466	248.7119
457.679	248.0648
457.891	322.44008
458.103	308.12916
458.315	284.09146
458.528	215.77206
458.74	266.74393
458.952	283.47208
459.165	264.21097
459.377	207.37586
459.589	188.5766
459.801	264.72297
460.014	281.07525
460.226	261.65083
460.438	276.68502
460.65	219.01108
460.862	279.67475
461.075	275.82305
461.287	245.04481
461.499	178.01
461.711	179.19928
461.923	225.75786
462.135	272.50964
462.347	244.99088
462.559	256.20641
462.771	273.31783
462.983	243.91223
463.196	273.64109
463.408	311.81516
463.62	244.23583
463.832	327.73766
464.044	291.95368
464.256	282.87963
464.468	235.30856
464.68	296.39543
464.891	279.21689
465.103	216.87877
465.315	311.62684
465.527	220.84636
465.739	207.80788
465.951	234.52627
466.163	242.21328
466.375	202.24513
466.587	294.1881
466.799	214.12541
467.01	226.16261
467.222	251.89326
467.434	185.92857
467.646	202.89327
467.858	256.88028
468.069	237.76316
468.281	185.82048
468.493	175.388
468.705	202.81225
468.916	225.24516
469.128	184.03696
469.34	203.67643
469.551	213.85546
469.763	134.45818
469.975	209.2929
470.186	218.66021
470.398	191.81875
470.61	189.90052
470.821	156.16148
471.033	210.34586
471.245	271.40509
471.456	171.79248
471.668	237.73619
471.879	175.57722
472.091	253.996
472.302	278.48967
472.514	255.47861
472.725	232.74583
472.937	189.73841
473.148	192.27802
473.36	241.26937
473.571	253.86122
473.783	217.17568
473.994	233.47421
474.206	211.18281
474.417	212.77563
474.629	228.10536
474.84	266.09724
475.051	286.32648
475.263	171.44102
475.474	218.74118
475.685	240.43331
475.897	210.10288
476.108	292.70748
476.319	196.35713
476.531	203.64942
476.742	260.33025
476.953	280.32114
477.165	337.22787
477.376	221.54806
477.587	226.91814
477.798	245.12571
478.01	177.25316
478.221	259.11742
478.432	235.11973
478.643	232.93467
478.854	201.3269
479.065	354.29183
479.277	287.91513
479.488	253.26815
479.699	308.96326
479.91	253.4299
480.121	307.69865
480.332	273.66803
480.543	275.01494
480.754	202.97429
480.965	241.40422
481.176	269.76164
481.387	346.1776
481.598	273.5064
481.809	334.32467
482.02	513.12665
482.231	1057.00904
482.442	2426.98083
482.653	4776.05395
482.864	7492.26304
483.075	11405.13369
483.286	15924.19131
483.497	21224.97188
483.708	25282.38099
483.919	28888.17999
484.13	32107.26229
484.341	36722.81575
484.551	43000.28068
484.762	48681.9552
484.973	50494.70522
485.184	34662.21437
485.395	11598.08244
485.605	3542.92975
485.816	1534.06947
486.027	742.75329
486.238	532.87012
486.449	547.63625
486.659	462.36144
486.87	387.04863
487.081	396.97598
487.291	364.90146
487.502	331.36742
487.713	289.98832
487.923	321.84842
488.134	269.38445
488.345	404.24502
488.555	348.16606
488.766	252.18981
488.976	340.82959
489.187	314.77439
489.398	320.39609
489.608	344.56524
489.819	265.26191
490.029	266.85171
490.24	333.35688
490.45	357.67658
490.661	341.66276
490.871	293.08437
491.082	236.19871
491.292	254.88558
491.503	310.81972
491.713	332.17397
491.924	314.34397
492.134	270.05801
492.344	295.13027
492.555	310.95424
492.765	327.54943
492.975	325.55958
493.186	336.26017
493.396	343.7859
493.607	229.53535
493.817	356.19915
494.027	286.48805
494.237	283.20279
494.448	270.46214
494.658	332.68478
494.868	249.11633
495.078	317.62572
495.289	371.45336
495.499	287.59203
495.709	235.4704
495.919	268.27977
496.129	263.02525
496.34	231.50485
496.55	215.31317
496.76	335.91072
496.97	334.16338
497.18	275.17656
497.39	257.23069
497.6	325.96294
497.81	326.63519
498.021	338.67936
498.231	343.14091
498.441	300.94416
498.651	259.49475
498.861	220.63045
499.071	292.16905
499.281	342.11965
499.491	303.33936
499.701	310.01258
499.911	298.33344
500.121	284.71082
500.331	279.56702
500.54	385.84102
500.75	281.66774
500.96	299.57154
501.17	275.49981
501.38	308.88254
501.59	306.78379
501.8	267.12116
502.01	204.32454
502.219	289.71909
502.429	331.82447
502.639	352.35751
502.849	338.54497
503.059	284.92625
503.268	272.72516
503.478	264.66907
503.688	311.76136
503.898	285.81487
504.107	281.42536
504.317	379.13122
504.527	310.22782
504.736	318.21748
504.946	293.59586
505.156	345.93575
505.365	269.65387
505.575	271.99778
505.785	291.03833
505.994	340.02327
506.204	265.23496
506.413	283.66059
506.623	217.87747
506.832	279.37849
507.042	287.40354
507.251	333.35688
507.461	289.5037
507.67	296.18009
507.88	252.64811
508.089	271.08179
508.299	284.79161
508.508	284.38768
508.718	208.8069
508.927	225.0023
509.137	343.62465
509.346	329.13584
509.555	236.65727
509.765	252.7829
509.974	498.05018
510.184	294.96876
510.393	250.14086
510.602	275.33819
510.812	342.97966
511.021	270.65073
511.23	362.96783
511.439	233.98676
511.649	258.25493
511.858	296.63769
512.067	293.67662
512.276	292.11521
512.486	558.44613
512.695	305.19617
512.904	223.89591
513.113	285.46481
513.322	288.21131
513.531	294.59189
513.741	332.79232
513.95	227.78158
514.159	292.46519
514.368	228.96876
514.577	279.45929
514.786	235.20066
514.995	248.41532
515.204	275.12269
515.413	220.49551
515.622	240.0827
515.831	266.77088
516.04	267.17505
516.249	223.89591
516.458	232.71885
516.667	290.49987
516.876	330.34575
517.085	258.74008
517.294	318.27127
517.503	281.34456
517.712	278.2742
517.921	295.88399
518.13	303.07024
518.339	304.38888
518.547	395.28588
518.756	239.86694
518.965	263.40253
519.174	276.46953
519.383	269.33056
519.591	247.49858
519.8	217.41861
520.009	267.82172
520.218	230.88434
520.426	274.12599
520.635	313.42932
520.844	272.29412
521.053	310.22782
521.261	329.61981
521.47	301.61699
521.679	255.96381
521.887	259.73732
522.096	280.24035
522.304	221.70999
522.513	229.53535
522.722	232.50303
522.93	329.86179
523.139	275.2035
523.347	221.35914
523.556	228.24027
523.764	263.96844
523.973	250.38351
524.182	213.74748
524.39	299.78686
524.598	232.93467
524.807	195.65481
525.015	270.35437
525.224	279.83635
525.432	250.59919
525.641	202.48818
525.849	249.60164
526.057	248.03784
526.266	304.9809
526.474	201.43492
526.683	225.91976
526.891	294.80725
527.099	255.12818
527.308	247.22894
527.516	214.28738
527.724	289.34215
527.932	212.9916
528.141	296.98761
528.349	358.48241
528.557	254.53514
528.765	244.61336
528.974	191.46754
529.182	235.65923
529.39	255.80208
529.598	233.0156
529.806	198.46399
530.015	284.17225
530.223	245.2875
530.431	221.2242
530.639	210.23787
530.847	205.80974
531.055	247.90303
531.263	252.08198
531.471	191.17035
531.679	168.06131
531.887	241.29634
532.095	279.27075
532.303	285.1686
532.511	250.19479
532.719	221.73697
532.927	263.32168
533.135	265.6661
533.343	329.27028
533.551	289.58447
533.759	237.84408
533.967	316.22699
534.175	258.65922
534.383	325.96294
534.591	336.26017
534.798	298.73717
535.006	220.46852
535.214	254.23862
535.422	233.06956
535.63	306.08417
535.837	201.75901
536.045	215.5831
536.253	265.82778
536.461	250.00606
536.668	252.89074
536.876	299.32931
537.084	332.76543
537.292	308.34442
537.499	325.23689
537.707	282.55646
537.915	298.73717
538.122	327.41499
538.33	318.40576
538.538	279.59395
538.745	295.4533
538.953	359.5031
539.16	313.48313
539.368	260.16854
539.575	245.2066
539.783	285.6533
539.99	336.04512
540.198	292.06137
540.406	273.12925
540.613	262.91745
540.82	235.60528
541.028	284.30689
541.235	268.33366
541.443	328.94763
541.65	372.23198
541.858	302.39745
542.065	267.60617
542.272	250.70704
542.48	393.59568
542.687	257.82367
542.895	317.03396
543.102	254.3734
543.309	312.81057
543.516	307.69865
543.724	282.42181
543.931	262.40542
544.138	319.96576
544.346	264.74992
544.553	285.08782
544.76	282.79883
544.967	266.15113
545.174	293.59586
545.382	272.72516
545.589	325.15622
545.796	327.44188
546.003	212.64065
546.21	299.94834
546.417	375.13146
546.624	283.82217
546.832	286.59575
547.039	287.72665
547.246	329.83491
547.453	272.59046
547.66	251.75847
547.867	298.11811
548.074	292.16905
548.281	259.95293
548.488	272.94068
548.695	256.3951
548.902	265.6661
549.109	253.69947
549.316	208.5369
549.523	224.00385
549.73	256.66464
549.936	276.60421
550.143	236.5224
550.35	225.56897
550.557	233.95978
550.764	234.14861
550.971	298.54876
551.178	245.85377
551.384	297.68745
551.591	300.91725
551.798	321.31053
552.005	253.67252
552.211	323.38135
552.418	271.40509
552.625	195.24962
552.832	286.56883
553.038	285.41095
553.245	293.5151
553.452	313.88665
553.658	241.29634
553.865	252.89074
554.072	282.7719
554.278	281.34456
554.485	368.55351
554.691	347.70926
554.898	260.3033
555.105	324.56461
555.311	261.83948
555.518	307.13359
555.724	312.05729
555.931	203.59541
556.137	237.38554
556.344	294.80725
556.55	276.92744
556.757	292.89593
556.963	269.65387
557.17	289.98832
557.376	297.71437
557.582	344.91459
557.789	259.14437
557.995	253.24119
558.202	267.06728
558.408	290.31141
558.614	239.89391
558.821	283.90295
559.027	314.63989
559.233	289.5037
559.439	386.48509
559.646	287.08043
559.852	344.10838
560.058	310.79282
560.264	306.94524
560.471	274.53006
560.677	344.02776
560.883	348.38102
561.089	348.13919
561.295	259.44084
561.502	294.13426
561.708	269.76164
561.914	303.31245
562.12	299.16782
562.326	319.50853
562.532	328.16787
562.738	316.30769
562.944	264.93855
563.15	285.00703
563.356	224.13878
563.562	278.73208
563.768	326.74275
563.974	223.59906
564.18	306.75688
564.386	290.36525
564.592	259.33304
564.798	269.1689
565.004	369.49331
565.21	229.96704
565.416	326.55452
565.622	315.5007
