Data from deut_8ms_500_SR4014911__0__16-03-00-433.txt Node

Date: Sun Jul 13 16:03:00 EDT 2025
User: cryst
Spectrometer: SR401491
Trigger mode: 0
Integration Time (sec): 8.000000E-3
Scans to average: 500
Electric dark correction enabled: true
Nonlinearity correction enabled: true
Boxcar width: 0
XAxis mode: Wavelengths
Number of Pixels in Spectrum: 3648
>>>>>Begin Spectral Data<<<<<
344.912	-20.6275
345.129	-10.38714
345.347	-15.12134
345.565	-2.19468
345.783	2.24121
346.001	8.1495
346.219	-2.29263
346.437	7.22036
346.654	0.29326
346.872	12.49445
347.09	-1.49594
347.308	8.36491
347.526	3.22711
347.743	7.33569
347.961	2.77007
348.179	7.15073
348.397	-0.39019
348.614	20.67984
348.832	19.32702
349.05	24.27034
349.268	17.42817
349.485	22.61977
349.703	14.37842
349.921	30.20633
350.138	17.99806
350.356	20.86688
350.574	15.27903
350.791	24.17901
351.009	13.85415
351.227	24.40516
351.444	16.32099
351.662	25.46417
351.879	11.84395
352.097	25.41415
352.314	19.06602
352.532	27.7212
352.75	24.25512
352.967	25.62726
353.185	18.68756
353.402	26.94061
353.62	16.92788
353.837	28.24956
354.055	18.07201
354.272	27.4929
354.49	19.39009
354.707	28.76051
354.925	16.28401
355.142	27.64076
355.359	15.32036
355.577	27.08412
355.794	22.91771
356.012	30.55636
356.229	19.97951
356.446	26.70578
356.664	15.47698
356.881	29.4693
357.099	16.50154
357.316	27.49725
357.533	18.80501
357.751	25.50983
357.968	22.87204
358.185	26.08172
358.402	16.48196
358.62	31.8347
358.837	21.24748
359.054	30.22373
359.272	21.85643
359.489	30.34548
359.706	20.49932
359.923	32.80427
360.141	23.07646
360.358	24.76614
360.575	15.2638
360.792	26.39266
361.009	16.60595
361.226	29.46278
361.444	21.46931
361.661	27.32113
361.878	17.41947
362.095	27.92776
362.312	20.54064
362.529	29.81934
362.746	19.11387
362.963	21.61502
363.181	16.20353
363.398	21.62155
363.615	27.02324
363.832	28.67354
364.049	18.07636
364.266	31.6173
364.483	15.94032
364.7	22.40664
364.917	16.69513
365.134	28.22347
365.351	19.02904
365.568	21.95647
365.785	25.77512
366.002	27.87776
366.219	17.26938
366.436	35.5802
366.652	20.19265
366.869	30.8216
367.086	18.31562
367.303	31.42598
367.52	18.84851
367.737	26.67969
367.954	19.30962
368.171	28.16259
368.387	20.76901
368.604	28.03213
368.821	17.78707
369.038	26.46442
369.255	19.69894
369.471	22.79157
369.688	23.22216
369.905	28.98663
370.122	14.96143
370.339	29.57366
370.555	12.14419
370.772	24.54869
370.989	24.99665
371.205	28.71267
371.422	14.51112
371.639	28.24738
371.855	22.70676
372.072	22.41534
372.289	17.65004
372.505	28.91923
372.722	16.89308
372.939	25.7512
373.155	17.21283
373.372	24.14421
373.589	21.3236
373.805	26.84494
374.022	14.20439
374.238	24.52912
374.455	18.15902
374.671	34.74984
374.888	19.25089
375.104	25.67075
375.321	14.56116
375.537	29.2758
375.754	20.59066
375.97	25.76207
376.187	25.03144
376.403	32.14992
376.62	19.18782
376.836	23.30263
377.053	21.62155
377.269	25.56854
377.486	13.60397
377.702	21.33882
377.918	16.62118
378.135	23.03949
378.351	20.75161
378.568	32.58253
378.784	20.62546
379	28.23434
379.217	15.00929
379.433	21.04739
379.649	19.62499
379.865	23.75061
380.082	20.06433
380.298	33.03036
380.514	27.83644
380.731	25.34022
380.947	17.71747
381.163	29.47147
381.379	15.89247
381.596	26.61445
381.812	20.41232
382.028	29.13447
382.244	15.96425
382.46	25.4185
382.676	21.63895
382.893	24.77919
383.109	16.98444
383.325	28.41915
383.541	19.78159
383.757	21.72159
383.973	19.57932
384.189	32.2521
384.405	21.23443
384.622	28.23869
384.838	20.05781
385.054	28.52569
385.27	21.87382
385.486	28.20607
385.702	17.46732
385.918	32.21079
386.134	26.66881
386.35	31.53251
386.566	27.26242
386.782	32.89775
386.998	23.69189
387.214	25.0858
387.43	24.94663
387.646	34.45204
387.861	22.14567
388.077	30.91943
388.293	20.4493
388.509	31.9934
388.725	19.31832
388.941	28.53874
389.157	25.26846
389.373	30.91943
389.588	23.1678
389.804	29.48234
390.02	22.56323
390.236	30.45418
390.452	16.76256
390.668	25.04449
390.883	22.89161
391.099	30.97161
391.315	26.87538
391.531	28.61266
391.746	27.84297
391.962	35.43457
392.178	25.37936
392.393	32.81079
392.609	27.2298
392.825	32.11079
393.041	25.66857
393.256	30.43896
393.472	23.43528
393.687	32.47601
393.903	31.89991
394.119	34.89331
394.334	22.60455
394.55	39.21217
394.766	25.325
394.981	38.68838
395.197	30.06284
395.412	35.62802
395.628	33.44122
395.843	36.72136
396.059	35.25632
396.274	36.88872
396.49	35.76714
396.705	29.91065
396.921	23.4853
397.136	30.45418
397.352	26.07954
397.567	29.43886
397.783	25.76207
397.998	34.30422
398.214	20.94735
398.429	32.84558
398.644	29.51713
398.86	36.12362
399.075	28.76703
399.29	31.68904
399.506	25.82296
399.721	35.47369
399.936	25.59029
400.152	36.191
400.367	24.41821
400.582	30.53462
400.798	23.09821
401.013	31.1738
401.228	21.8238
401.444	28.45394
401.659	31.34337
401.874	36.31707
402.089	19.44012
402.304	33.37166
402.52	23.66362
402.735	28.4322
402.95	28.94749
403.165	36.23882
403.38	29.98457
403.596	30.7129
403.811	29.88456
404.026	40.76174
404.241	24.15291
404.456	28.97576
404.671	27.47551
404.886	36.63224
405.101	25.21192
405.316	38.87529
405.532	26.46442
405.747	35.83452
405.962	29.81064
406.177	34.04772
406.392	22.51538
406.607	37.27562
406.822	27.51682
407.037	43.62594
407.252	36.51269
407.467	52.39482
407.682	39.06438
407.896	53.12254
408.111	48.24973
408.326	59.13466
408.541	50.64606
408.756	69.05781
408.971	60.07719
409.186	65.57969
409.401	52.9531
409.616	46.8114
409.83	25.33587
410.045	30.02806
410.26	26.18609
410.475	28.84095
410.69	26.2622
410.905	33.38905
411.119	18.34607
411.334	30.7629
411.549	25.49679
411.764	33.9912
411.978	28.01256
412.193	36.04754
412.408	25.13364
412.623	32.37384
412.837	26.98628
413.052	37.09739
413.267	27.54943
413.481	31.23684
413.696	22.04998
413.911	31.9347
414.125	25.20975
414.34	30.85421
414.554	23.48312
414.769	33.9912
414.984	25.67944
415.198	30.12589
415.413	20.3014
415.627	33.19122
415.842	18.31997
416.056	31.36728
416.271	23.62448
416.485	34.47378
416.7	25.49679
416.914	32.74558
417.129	26.39266
417.343	32.12383
417.558	26.43833
417.772	36.56269
417.987	23.75713
418.201	26.84929
418.415	21.93689
418.63	29.37798
418.844	23.82454
419.059	32.87384
419.273	27.75817
419.487	36.16491
419.702	27.45594
419.916	38.49277
420.13	28.21694
420.345	31.24989
420.559	26.45355
420.773	27.01889
420.988	22.03041
421.202	39.10785
421.416	25.08145
421.63	35.65845
421.845	27.56465
422.059	36.37141
422.273	27.56465
422.487	36.76048
422.701	34.06293
422.916	42.47204
423.13	25.76425
423.344	27.94733
423.558	24.94881
423.772	30.82595
423.986	26.19044
424.201	32.05427
424.415	28.11693
424.629	34.35639
424.843	26.77753
425.057	37.1865
425.271	18.94856
425.485	29.21927
425.699	19.76419
425.913	43.41081
426.127	24.06593
426.341	30.91074
426.555	28.43872
426.769	39.25564
426.983	29.6541
427.197	32.66732
427.411	19.30744
427.625	34.44769
427.839	24.32253
428.053	30.67811
428.267	23.90283
428.481	34.95635
428.695	23.76148
428.908	34.54551
429.122	31.09336
429.336	38.91659
429.55	28.62353
429.764	34.38683
429.978	35.8606
430.191	49.86613
430.405	53.85023
430.619	69.14899
430.833	77.12175
431.047	100.71371
431.26	116.04458
431.474	146.0377
431.688	154.21317
431.901	170.57852
432.115	184.03531
432.329	212.03103
432.543	218.07339
432.756	266.82312
432.97	263.9366
433.184	191.07792
433.397	89.16434
433.611	47.5045
433.824	36.56921
434.038	40.22712
434.252	23.13083
434.465	35.06721
434.679	24.82486
434.892	38.17545
435.106	19.96646
435.319	28.77573
435.533	28.49525
435.747	36.74744
435.96	26.0752
436.174	35.77801
436.387	25.59464
436.601	35.77583
436.814	24.58131
437.027	27.71033
437.241	26.17522
437.454	24.00939
437.668	23.37439
437.881	39.96197
438.095	26.66012
438.308	35.27806
438.521	31.19119
438.735	34.46508
438.948	27.8147
439.161	33.7499
439.375	24.64872
439.588	35.61281
439.801	30.95422
440.015	36.04319
440.228	29.51496
440.441	39.44037
440.654	37.87116
440.868	42.36556
441.081	25.0771
441.294	37.74292
441.507	28.94097
441.721	33.68904
441.934	28.88879
442.147	32.14557
442.36	24.52477
442.573	40.49661
442.786	31.56947
443	41.77229
443.213	30.39548
443.426	40.44445
443.639	29.7128
443.852	39.73812
444.065	32.13035
444.278	40.54659
444.491	33.13688
444.704	40.52051
444.917	33.92164
445.13	40.7248
445.343	31.25858
445.556	45.19699
445.769	37.56904
445.982	44.72764
446.195	36.96262
446.408	37.08869
446.621	30.74551
446.834	39.03612
447.047	36.91915
447.26	41.15075
447.473	34.22814
447.686	36.06493
447.899	36.78004
448.111	44.83194
448.324	33.00862
448.537	37.04087
448.75	32.38036
448.963	36.41923
449.176	36.03667
449.388	43.15656
449.601	28.59527
449.814	38.63187
450.027	33.96511
450.239	37.46689
450.452	32.36732
450.665	33.00645
450.878	27.59509
451.09	36.41271
451.303	30.51071
451.516	37.60817
451.728	35.97581
451.941	35.63672
452.154	32.94992
452.366	35.52151
452.579	26.72317
452.792	41.19204
453.004	29.16926
453.217	36.31924
453.429	27.95386
453.642	42.43292
453.854	30.17807
454.067	41.2529
454.28	33.74556
454.492	35.30849
454.705	29.67367
454.917	36.4953
455.13	31.3825
455.342	39.10785
455.555	28.65397
455.767	44.26915
455.979	33.87381
456.192	36.49965
456.404	28.48655
456.617	43.79109
456.829	26.08172
457.041	42.24169
457.254	33.26731
457.466	39.40777
457.679	31.24337
457.891	35.65845
458.103	26.20784
458.315	44.06271
458.528	31.00422
458.74	40.19235
458.952	27.89732
459.165	39.04916
459.377	31.7086
459.589	29.97805
459.801	30.61506
460.014	38.42757
460.226	29.57366
460.438	38.1385
460.65	30.57158
460.862	35.86278
461.075	23.24174
461.287	33.06297
461.499	23.06559
461.711	28.47133
461.923	27.55813
462.135	38.26673
462.347	25.33805
462.559	40.74653
462.771	36.0671
462.983	33.71295
463.196	28.15172
463.408	42.15259
463.62	34.88027
463.832	41.37459
464.044	35.37153
464.256	49.94217
464.468	28.16476
464.68	34.50638
464.891	33.13253
465.103	39.42951
465.315	37.43428
465.527	38.14936
465.739	20.9169
465.951	34.94983
466.163	26.38179
466.375	33.76077
466.587	31.84339
466.799	36.767
467.01	26.93844
467.222	33.72382
467.434	28.19085
467.646	36.07362
467.858	26.3557
468.069	39.1361
468.281	25.65987
468.493	26.82972
468.705	17.90018
468.916	30.69768
469.128	19.06167
469.34	30.95422
469.551	23.00469
469.763	26.75144
469.975	19.65979
470.186	32.35862
470.398	22.45884
470.61	30.92161
470.821	21.42364
471.033	31.58034
471.245	24.92489
471.456	27.87993
471.668	23.05906
471.879	31.71947
472.091	28.0343
472.302	38.27108
472.514	34.2151
472.725	33.27818
472.937	25.53158
473.148	32.62166
473.36	28.10606
473.571	34.13467
473.783	22.33053
473.994	32.12383
474.206	21.59545
474.417	35.93016
474.629	24.83138
474.84	39.3078
475.051	27.10152
475.263	36.94958
475.474	24.62915
475.685	34.68681
475.897	22.94163
476.108	35.62368
476.319	24.63132
476.531	31.4499
476.742	29.5954
476.953	39.82723
477.165	32.68036
477.376	33.69991
477.587	27.35157
477.798	37.66033
478.01	18.21992
478.221	39.18174
478.432	19.98386
478.643	33.08688
478.854	23.18737
479.065	43.06312
479.277	35.63889
479.488	39.51644
479.699	31.22163
479.91	37.12129
480.121	33.00427
480.332	35.89321
480.543	32.66949
480.754	35.00635
480.965	29.29971
481.176	41.61582
481.387	41.3659
481.598	39.65119
481.809	39.04047
482.02	60.76778
482.231	112.99297
482.442	225.53278
482.653	408.1395
482.864	632.48347
483.075	958.13785
483.286	1366.81775
483.497	1837.35342
483.708	2224.67093
483.919	2528.43259
484.13	2827.40799
484.341	3212.71715
484.551	3769.9337
484.762	4197.76757
484.973	4275.8605
485.184	2857.0201
485.395	910.09174
485.605	289.55805
485.816	149.95582
486.027	77.46465
486.238	66.78688
486.449	61.01535
486.659	60.54844
486.87	46.77012
487.081	46.492
487.291	40.36621
487.502	43.07833
487.713	33.80425
487.923	42.84147
488.134	27.21893
488.345	51.4542
488.555	40.14236
488.766	40.58788
488.976	39.3317
489.187	49.32952
489.398	39.79463
489.608	44.34086
489.819	33.35644
490.029	43.09137
490.24	41.45718
490.45	46.86138
490.661	31.79339
490.871	36.70832
491.082	30.6542
491.292	41.57888
491.503	39.47515
491.713	44.30826
491.924	32.5021
492.134	42.39164
492.344	34.2651
492.555	42.78714
492.765	40.56832
492.975	42.10478
493.186	33.63686
493.396	37.59295
493.607	26.18827
493.817	45.31433
494.027	31.84122
494.237	37.71684
494.448	28.87574
494.658	40.21625
494.868	26.25567
495.078	40.99645
495.289	37.48862
495.499	46.95915
495.709	33.5173
495.919	44.25394
496.129	36.14753
496.34	41.15727
496.55	27.01672
496.76	43.54771
496.97	34.49117
497.18	36.91698
497.39	31.21293
497.6	40.71393
497.81	37.27344
498.021	49.98562
498.231	37.46689
498.441	46.53111
498.651	33.52817
498.861	38.07329
499.071	34.0325
499.281	43.10441
499.491	30.63246
499.701	42.33731
499.911	33.31514
500.121	42.03741
500.331	37.61034
500.54	51.28475
500.75	36.05406
500.96	39.50992
501.17	32.40862
501.38	43.55206
501.59	39.88808
501.8	37.81899
502.01	31.23902
502.219	41.20291
502.429	31.3412
502.639	45.26
502.849	37.21041
503.059	43.07616
503.268	32.1434
503.478	39.27085
503.688	32.97601
503.898	42.68935
504.107	30.26503
504.317	43.68461
504.527	35.23024
504.736	44.9797
504.946	33.1521
505.156	41.62234
505.365	29.00185
505.575	43.0566
505.785	28.91705
505.994	39.82288
506.204	29.24971
506.413	36.17578
506.623	23.96807
506.832	35.44109
507.042	30.36504
507.251	39.7316
507.461	29.61714
507.67	38.18631
507.88	34.49117
508.089	41.19639
508.299	30.36069
508.508	40.2119
508.718	26.94931
508.927	37.13216
509.137	34.78897
509.346	44.86888
509.555	32.02166
509.765	36.05623
509.974	38.71663
510.184	43.60421
510.393	34.51725
510.602	40.96168
510.812	36.39532
511.021	39.05351
511.23	31.876
511.439	36.52356
511.649	31.16945
511.858	37.87116
512.067	35.11068
512.276	41.31592
512.486	43.82803
512.695	38.36236
512.904	24.94011
513.113	39.56425
513.322	32.3021
513.531	38.42105
513.741	30.44114
513.95	33.95424
514.159	30.96726
514.368	31.96731
514.577	25.17496
514.786	35.36935
514.995	32.31297
515.204	34.87375
515.413	25.30543
515.622	37.36038
515.831	32.28688
516.04	41.5528
516.249	25.62943
516.458	34.58464
516.667	24.92054
516.876	38.50798
517.085	26.87756
517.294	46.36598
517.503	29.44973
517.712	41.41154
517.921	32.15862
518.13	38.93615
518.339	28.80399
518.547	42.99141
518.756	30.20416
518.965	40.62048
519.174	28.24304
519.383	38.10372
519.591	29.34537
519.8	33.51513
520.009	30.62811
520.218	38.06025
520.426	31.04988
520.635	38.9318
520.844	28.14302
521.053	40.29014
521.261	29.21274
521.47	35.85408
521.679	32.19992
521.887	37.91463
522.096	24.71178
522.304	29.97153
522.513	23.62665
522.722	30.09328
522.93	32.56949
523.139	36.04971
523.347	26.347
523.556	37.24301
523.764	28.05822
523.973	37.14955
524.182	27.54074
524.39	35.23893
524.598	24.70091
524.807	38.50364
525.015	30.57158
525.224	38.01678
525.432	28.567
525.641	32.80427
525.849	28.043
526.057	38.44278
526.266	32.33905
526.474	36.44314
526.683	24.87487
526.891	37.53209
527.099	25.87732
527.308	39.47297
527.516	23.50487
527.724	39.97501
527.932	23.61795
528.141	36.86699
528.349	32.24123
528.557	32.86732
528.765	27.11891
528.974	33.36296
529.182	26.60141
529.39	37.68641
529.598	26.85146
529.806	35.43239
530.015	31.65643
530.223	32.50645
530.431	25.05971
530.639	29.73455
530.847	28.76051
531.055	35.70845
531.263	24.76614
531.471	33.35644
531.679	15.87289
531.887	34.48465
532.095	24.59653
532.303	37.46689
532.511	30.36287
532.719	40.13801
532.927	31.68034
533.135	36.31272
533.343	35.82365
533.551	35.2498
533.759	32.53253
533.967	34.51725
534.175	31.21293
534.383	43.66505
534.591	34.25857
534.798	42.15476
535.006	29.64541
535.214	38.75575
535.422	31.69121
535.63	38.32107
535.837	28.38219
536.045	33.26296
536.253	31.20206
536.461	40.41402
536.668	28.90401
536.876	35.74105
537.084	35.61063
537.292	37.02348
537.499	33.90859
537.707	40.80521
537.915	33.76077
538.122	44.44081
538.33	32.53471
538.538	41.22682
538.745	35.828
538.953	45.14049
539.16	33.70425
539.368	38.5145
539.575	30.13894
539.783	37.20606
539.99	35.68671
540.198	40.31188
540.406	26.35352
540.613	34.00859
540.82	27.57335
541.028	39.89025
541.235	40.49878
541.443	46.14001
541.65	35.29762
541.858	39.57512
542.065	31.01727
542.272	38.96658
542.48	40.08151
542.687	38.67968
542.895	27.03411
543.102	39.56643
543.309	32.01079
543.516	39.48601
543.724	30.5868
543.931	39.47297
544.138	35.49325
544.346	43.03053
544.553	34.77593
544.76	36.20839
544.967	27.31895
545.174	40.36186
545.382	30.6455
545.589	37.47993
545.796	31.43685
546.003	35.71062
546.21	30.84552
546.417	43.18047
546.624	31.83904
546.832	44.76893
547.039	35.71062
547.246	46.58978
547.453	31.1064
547.66	37.26257
547.867	38.11241
548.074	42.78931
548.281	31.14336
548.488	34.71724
548.695	30.02153
548.902	35.88234
549.109	34.439
549.316	33.45644
549.523	29.09751
549.73	36.39749
549.936	28.6431
550.143	32.04557
550.35	26.2361
550.557	35.48239
550.764	27.8821
550.971	35.93668
551.178	30.95204
551.384	39.02308
551.591	32.08905
551.798	40.92039
552.005	30.4107
552.211	40.98342
552.418	26.21654
552.625	36.91046
552.832	32.4521
553.038	43.3065
553.245	32.55427
553.452	39.62945
553.658	30.02806
553.865	34.75854
554.072	27.44072
554.278	41.74186
554.485	39.28389
554.691	45.11442
554.898	29.95848
555.105	38.03634
555.311	33.33253
555.518	43.3956
555.724	29.38885
555.931	31.44338
556.137	29.39103
556.344	34.21945
556.55	34.96939
556.757	42.77193
556.963	34.47378
557.17	39.46645
557.376	35.19546
557.582	38.45147
557.789	21.63242
557.995	38.91659
558.202	28.26478
558.408	42.1439
558.614	27.58205
558.821	37.16911
559.027	34.81288
559.233	40.86606
559.439	37.6712
559.646	38.28847
559.852	37.00827
560.058	43.47817
560.264	35.55629
560.471	39.35561
560.677	29.84978
560.883	46.37467
561.089	30.75638
561.295	44.80804
561.502	31.14988
561.708	36.89959
561.914	38.01678
562.12	40.94212
562.326	32.83253
562.532	44.55598
562.738	32.43906
562.944	35.48239
563.15	37.67772
563.356	35.51499
563.562	33.33253
563.768	43.8628
563.974	21.31925
564.18	43.07833
564.386	28.88661
564.592	38.18849
564.798	25.87949
565.004	41.40719
565.21	28.54743
565.416	40.06847
565.622	35.53238
565.828	43.21306
566.034	38.98179
566.239	40.40533
566.445	39.0057
566.651	47.11559
566.857	41.75273
567.063	47.43932
567.268	41.88312
567.474	53.84372
567.68	42.66979
567.886	55.29905
568.091	55.43154
568.297	55.40331
568.503	51.97774
568.708	68.61927
568.914	57.98143
569.12	69.33135
569.325	56.02017
569.531	59.87739
569.737	41.97874
569.942	55.4272
570.148	59.39962
570.353	71.51089
570.559	63.24767
570.765	63.92515
570.97	60.80253
571.176	78.58016
571.381	59.7775
571.587	56.38724
571.792	47.36328
571.998	58.37019
572.203	51.38685
572.408	82.15425
572.614	74.08096
572.819	78.20905
573.025	59.58204
573.23	67.44473
573.435	64.80889
573.641	71.78223
573.846	58.85233
574.051	71.62811
574.257	73.24962
574.462	74.08096
574.667	57.94016
574.873	70.26918
575.078	69.02524
575.283	71.65633
575.488	67.8898
575.694	84.92726
575.899	64.19006
576.104	79.32019
576.309	72.81766
576.514	76.74194
576.719	89.24027
576.925	106.55051
577.13	89.60906
577.335	90.1644
577.54	76.80488
577.745	70.40811
