Data from deut_50ms_80_SR4014911__0__16-20-51-185.txt Node

Date: Sun Jul 13 16:20:51 EDT 2025
User: cryst
Spectrometer: SR401491
Trigger mode: 0
Integration Time (sec): 5.000000E-2
Scans to average: 80
Electric dark correction enabled: true
Nonlinearity correction enabled: true
Boxcar width: 0
XAxis mode: Wavelengths
Number of Pixels in Spectrum: 3648
>>>>>Begin Spectral Data<<<<<
344.912	-89.54846
345.129	-75.26028
345.347	-75.21935
345.565	-72.61367
345.783	22.44474
346.001	18.42115
346.219	7.57073
346.437	24.19807
346.654	55.15464
346.872	29.00895
347.09	-4.60389
347.308	46.35624
347.526	27.33747
347.743	16.04205
347.961	69.98863
348.179	30.76185
348.397	40.44829
348.614	64.77798
348.832	78.73862
349.05	81.26135
349.268	88.25866
349.485	72.28154
349.703	61.19508
349.921	101.94973
350.138	100.6758
350.356	96.10814
350.574	65.38866
350.791	81.4241
351.009	94.14259
351.227	84.19068
351.444	71.35897
351.662	80.92229
351.879	70.51778
352.097	90.84829
352.314	63.21731
352.532	86.74002
352.75	96.16236
352.967	96.46057
353.185	82.56331
353.402	81.93946
353.62	58.57546
353.837	94.57638
354.055	79.79657
354.272	107.19389
354.49	111.63776
354.707	111.39391
354.925	78.83357
355.142	87.60782
355.359	78.07399
355.577	117.58438
355.794	91.2279
356.012	121.85052
356.229	95.28127
356.446	89.04506
356.664	77.32796
356.881	110.94684
357.099	78.60299
357.316	97.7618
357.533	86.5095
357.751	69.03885
357.968	150.50456
358.185	113.04665
358.402	70.82984
358.62	107.45133
358.837	117.23223
359.054	74.88626
359.272	66.86779
359.489	86.52306
359.706	87.2824
359.923	102.18011
360.141	84.32629
360.358	109.68688
360.575	94.12904
360.792	90.50935
361.009	91.81086
361.226	96.85366
361.444	123.5568
361.661	101.33987
361.878	96.25725
362.095	86.00778
362.312	96.97565
362.529	107.47843
362.746	102.34273
362.963	78.23676
363.181	73.12267
363.398	101.16369
363.615	120.07643
363.832	77.51786
364.049	72.63427
364.266	140.49189
364.483	103.64369
364.7	92.78696
364.917	60.6386
365.134	95.43038
365.351	98.33107
365.568	103.35911
365.785	75.42888
366.002	72.71568
366.219	75.40175
366.436	110.55396
366.652	106.19121
366.869	90.75339
367.086	108.69784
367.303	71.52178
367.52	79.29473
367.737	130.36728
367.954	106.58415
368.171	89.51961
368.387	132.80403
368.604	86.29254
368.821	80.78666
369.038	88.1773
369.255	103.38621
369.471	70.65346
369.688	115.60684
369.905	115.48493
370.122	97.24674
370.339	95.52527
370.555	71.61675
370.772	82.35988
370.989	138.04229
371.205	94.77972
371.422	93.00387
371.639	73.21764
371.855	116.24346
372.072	86.56374
372.289	77.59925
372.505	132.37084
372.722	75.93079
372.939	103.86051
373.155	112.17965
373.372	84.89584
373.589	94.3866
373.805	99.03587
374.022	74.38433
374.238	68.94387
374.455	92.94964
374.671	105.8931
374.888	88.7061
375.104	62.24014
375.321	71.64388
375.537	87.55359
375.754	100.09302
375.97	94.52216
376.187	139.05735
376.403	101.99038
376.62	89.79077
376.836	82.3192
377.053	83.5533
377.269	91.71596
377.486	67.45128
377.702	54.08215
377.918	57.81532
378.135	94.15615
378.351	103.94181
378.568	93.45123
378.784	95.47105
379	97.46361
379.217	84.80091
379.433	74.56068
379.649	118.20742
379.865	78.87426
380.082	121.56614
380.298	78.33171
380.514	134.40133
380.731	90.90252
380.947	74.2758
381.163	107.01774
381.379	75.63236
381.596	84.92296
381.812	107.11259
382.028	113.84588
382.244	78.77931
382.46	81.38341
382.676	119.80557
382.893	104.98523
383.109	93.64102
383.325	88.23154
383.541	109.09075
383.757	63.85516
383.973	105.96086
384.189	126.41389
384.405	96.90788
384.622	96.74522
384.838	105.5679
385.054	112.40995
385.27	121.90469
385.486	98.50727
385.702	69.69013
385.918	110.07978
386.134	105.28334
386.35	103.65724
386.566	124.28802
386.782	125.39837
386.998	112.46414
387.214	108.26428
387.43	110.02559
387.646	142.2376
387.861	101.12304
388.077	107.11259
388.293	108.45396
388.509	113.72397
388.725	93.38345
388.941	113.04665
389.157	80.42047
389.373	109.34817
389.588	101.82776
389.804	110.97394
390.02	131.59922
390.236	79.09128
390.452	93.28855
390.668	103.41331
390.883	132.74988
391.099	107.51907
391.315	114.61801
391.531	88.42137
391.746	98.72413
391.962	113.99489
392.178	92.48871
392.393	102.95256
392.609	130.88172
392.825	95.10505
393.041	88.84169
393.256	116.31118
393.472	122.86618
393.687	128.30942
393.903	119.16903
394.119	112.12546
394.334	104.42965
394.55	135.61955
394.766	98.92744
394.981	138.69193
395.197	123.25888
395.412	144.53799
395.628	126.50867
395.843	142.87361
396.059	191.64044
396.274	132.26255
396.49	162.13637
396.705	129.04052
396.921	81.43766
397.136	130.69219
397.352	115.87774
397.567	107.74941
397.783	105.37819
397.998	121.34946
398.214	98.39884
398.429	94.11548
398.644	149.63875
398.86	112.89763
399.075	130.46205
399.29	106.5164
399.506	97.63982
399.721	108.29138
399.936	104.64646
400.152	104.66001
400.367	110.16107
400.582	110.64879
400.798	122.85263
401.013	82.92948
401.228	122.85263
401.444	124.82966
401.659	112.51832
401.874	157.17316
402.089	111.86807
402.304	120.64524
402.52	122.94743
402.735	108.69784
402.95	86.69934
403.165	125.89936
403.38	138.55659
403.596	103.68434
403.811	135.30823
404.026	162.17694
404.241	111.71905
404.456	104.91748
404.671	126.02122
404.886	117.57084
405.101	105.7034
405.316	119.90037
405.532	141.68278
405.747	130.67866
405.962	113.19566
406.177	124.59946
406.392	92.89542
406.607	139.04381
406.822	133.58915
407.037	142.86008
407.252	170.14056
407.467	171.57349
407.682	167.38262
407.896	180.69662
408.111	180.50743
408.326	195.15237
408.541	237.04568
408.756	244.86684
408.971	264.57206
409.186	259.88285
409.401	240.79471
409.616	133.00708
409.83	89.95347
410.045	109.72753
410.26	97.4365
410.475	86.29254
410.69	118.61374
410.905	126.68468
411.119	69.94793
411.334	107.80361
411.549	107.92555
411.764	135.21348
411.978	134.60437
412.193	123.25888
412.408	89.5874
412.623	82.99729
412.837	148.43467
413.052	120.99735
413.267	123.13701
413.481	101.09593
413.696	95.13216
413.911	94.06126
414.125	104.98523
414.34	84.66531
414.554	106.35381
414.769	128.67497
414.984	103.57593
415.198	87.78409
415.413	98.56149
415.627	116.77171
415.842	93.84436
416.056	131.13894
416.271	93.83081
416.485	118.96587
416.7	120.45564
416.914	99.59156
417.129	95.17283
417.343	114.25227
417.558	103.49462
417.772	134.30658
417.987	107.51907
418.201	111.63776
418.415	83.47194
418.63	106.85515
418.844	99.69998
419.059	121.83698
419.273	110.26945
419.487	150.28811
419.702	126.45451
419.916	155.13082
420.13	107.19389
420.345	102.62732
420.559	99.68643
420.773	103.31845
420.988	115.8642
421.202	139.89643
421.416	107.9391
421.63	110.79782
421.845	115.76938
422.059	117.90945
422.273	83.39057
422.487	110.10688
422.701	130.96295
422.916	147.44702
423.13	107.00419
423.344	96.58256
423.558	90.11617
423.772	100.52672
423.986	107.34293
424.201	101.35343
424.415	138.92201
424.629	120.15769
424.843	118.05843
425.057	140.23476
425.271	87.05189
425.485	84.9094
425.699	81.45122
425.913	129.40606
426.127	110.71653
426.341	89.95347
426.555	116.89361
426.769	134.38779
426.983	137.83928
427.197	129.83929
427.411	116.60917
427.625	141.07381
427.839	93.83081
428.053	110.02559
428.267	93.53257
428.481	124.49114
428.695	100.03881
428.908	74.98122
429.122	114.88892
429.336	116.7988
429.55	106.44865
429.764	141.08734
429.978	178.89926
430.191	185.26382
430.405	232.27103
430.619	226.40277
430.833	295.19488
431.047	377.79982
431.26	503.12727
431.474	617.9125
431.688	672.35349
431.901	725.88205
432.115	880.20472
432.329	984.63446
432.543	1064.93692
432.756	1305.79918
432.97	1329.46517
433.184	920.39943
433.397	408.51979
433.611	153.37239
433.824	145.17394
434.038	118.54602
434.252	119.88683
434.465	119.85974
434.679	97.21963
434.892	134.64498
435.106	86.12982
435.319	88.97727
435.533	128.28234
435.747	113.95425
435.96	94.16971
436.174	138.86787
436.387	135.09166
436.601	133.54854
436.814	135.43005
437.027	89.95347
437.241	123.59742
437.454	104.68711
437.668	130.82757
437.881	149.46287
438.095	106.58415
438.308	120.48272
438.521	155.57717
438.735	121.33591
438.948	125.49315
439.161	115.06502
439.375	113.30403
439.588	134.30658
439.801	139.72049
440.015	127.55122
440.228	134.65851
440.441	159.05306
440.654	171.66812
440.868	154.9144
441.081	96.36569
441.294	148.79996
441.507	126.76592
441.721	106.38091
441.934	133.92756
442.147	108.77913
442.36	109.67333
442.573	123.71929
442.786	102.89836
443	146.85171
443.213	117.48957
443.426	136.7159
443.639	141.03321
443.852	133.87342
444.065	148.54291
444.278	141.49332
444.491	134.45547
444.704	135.57894
444.917	136.10682
445.13	139.39569
445.343	112.84345
445.556	179.56146
445.769	182.16955
445.982	149.90932
446.195	149.53052
446.408	138.39418
446.621	150.99158
446.834	129.73099
447.047	123.59742
447.26	124.76196
447.473	135.2947
447.686	133.48086
447.899	137.18962
448.111	154.0893
448.324	134.36072
448.537	135.82258
448.75	132.70927
448.963	120.34729
449.176	158.79611
449.388	156.55101
449.601	134.72619
449.814	130.28605
450.027	124.65363
450.239	133.75159
450.452	119.71077
450.665	108.42686
450.878	129.66329
451.09	142.48118
451.303	125.2765
451.516	129.04052
451.728	147.39291
451.941	104.64646
452.154	139.72049
452.366	163.35337
452.579	122.47346
452.792	166.82829
453.004	137.05427
453.217	124.4776
453.429	133.0883
453.642	141.3174
453.854	155.30666
454.067	172.95229
454.28	167.58542
454.492	95.41683
454.705	110.36429
454.917	131.03064
455.13	177.39912
455.342	165.9765
455.555	106.63835
455.767	176.72336
455.979	126.57637
456.192	150.01755
456.404	119.99517
456.617	134.86155
456.829	123.787
457.041	157.29489
457.254	141.62865
457.466	117.34058
457.679	126.50867
457.891	158.79611
458.103	145.60693
458.315	138.29944
458.528	113.31758
458.74	137.92048
458.952	124.8432
459.165	127.97094
459.377	102.69508
459.589	113.12793
459.801	131.40969
460.014	134.21182
460.226	135.07812
460.438	147.18996
460.65	92.48871
460.862	143.2525
461.075	124.7755
461.287	136.70237
461.499	78.01974
461.711	85.73658
461.923	114.11681
462.135	148.16409
462.347	108.41332
462.559	133.87342
462.771	130.20483
462.983	113.4124
463.196	135.37591
463.408	145.47162
463.62	124.92444
463.832	151.81677
464.044	142.77889
464.256	149.5711
464.468	119.33155
464.68	139.82876
464.891	146.8923
465.103	118.1397
465.315	148.7729
465.527	108.90107
465.739	99.21206
465.951	120.88901
466.163	111.43455
466.375	101.32632
466.587	140.38363
466.799	120.18478
467.01	108.64365
467.222	116.04028
467.434	100.75711
467.646	123.09638
467.858	134.14414
468.069	138.19117
468.281	93.41056
468.493	92.51583
468.705	98.73769
468.916	116.64981
469.128	82.82098
469.34	96.66389
469.551	119.98163
469.763	80.52897
469.975	102.74929
470.186	120.36084
470.398	104.19928
470.61	107.73586
470.821	82.72605
471.033	96.93499
471.245	133.6433
471.456	97.87024
471.668	114.45546
471.879	102.41049
472.091	131.95119
472.302	149.16524
472.514	141.30386
472.725	116.44663
472.937	105.37819
473.148	90.45512
473.36	93.13943
473.571	124.64009
473.783	112.11192
473.994	129.10821
474.206	88.81457
474.417	108.44041
474.629	106.6248
474.84	138.98968
475.051	130.2319
475.263	106.12346
475.474	107.01774
475.685	129.97468
475.897	96.37924
476.108	135.1458
476.319	88.20442
476.531	109.75462
476.742	132.31669
476.953	142.57591
477.165	163.74551
477.376	106.31316
477.587	117.6521
477.798	121.66093
478.01	87.32308
478.221	117.13742
478.432	113.16857
478.643	113.50723
478.854	101.71934
479.065	181.64255
479.277	133.22367
479.488	136.87832
479.699	149.21936
479.91	138.61073
480.121	141.24973
480.332	143.96968
480.543	130.08298
480.754	90.69916
480.965	124.17969
481.176	141.60158
481.387	167.31502
481.598	134.67205
481.809	171.76275
482.02	228.10266
482.231	489.43674
482.442	1045.69304
482.653	2203.06722
482.864	3620.06973
483.075	5591.11371
483.286	7902.35499
483.497	10703.63476
483.708	12821.01203
483.919	14658.24947
484.13	16261.65295
484.341	18610.87058
484.551	21763.7724
484.762	24615.12399
484.973	25435.79402
485.184	17430.61886
485.395	5653.48903
485.605	1585.84554
485.816	680.80898
486.027	350.62189
486.238	255.11201
486.449	276.35909
486.659	215.51292
486.87	198.97447
487.081	188.89813
487.291	183.31812
487.502	161.40615
487.713	138.29944
487.923	156.57806
488.134	128.91867
488.345	195.4225
488.555	165.17877
488.766	152.07379
488.976	176.35844
489.187	167.81525
489.398	147.25761
489.608	177.76403
489.819	137.81221
490.029	133.33196
490.24	176.18273
490.45	172.30345
490.661	159.97268
490.871	152.10085
491.082	100.81133
491.292	128.56666
491.503	159.12068
491.713	165.31398
491.924	144.18618
492.134	131.09833
492.344	142.84655
492.555	152.07379
492.765	149.70639
492.975	156.87561
493.186	168.96441
493.396	186.088
493.607	124.17969
493.817	175.07442
494.027	137.06781
494.237	124.57238
494.448	138.88141
494.658	158.06579
494.868	129.05406
495.078	154.40041
495.289	179.29118
495.499	133.96817
495.709	114.06262
495.919	151.11333
496.129	142.34586
496.34	111.84097
496.55	98.94099
496.76	166.92293
496.97	151.38388
497.18	145.64752
497.39	129.55499
497.6	160.70295
497.81	163.39394
498.021	157.72768
498.231	170.19463
498.441	157.71415
498.651	130.73281
498.861	109.05011
499.071	138.84081
499.281	161.29796
499.491	144.21324
499.701	143.68552
499.911	145.82341
500.121	143.56373
500.331	149.69286
500.54	195.94925
500.75	142.90068
500.96	155.1714
501.17	126.58991
501.38	147.96115
501.59	150.11224
501.8	127.14504
502.01	106.15056
502.219	135.49773
502.429	169.1672
502.639	178.14244
502.849	153.52119
503.059	133.84634
503.268	147.43349
503.478	124.59946
503.688	152.00615
503.898	135.3353
504.107	127.21273
504.317	194.6121
504.527	147.8935
504.736	163.35337
504.946	131.89704
505.156	160.89227
505.365	125.56085
505.575	140.91141
505.785	128.10633
505.994	156.29403
506.204	134.9157
506.413	137.60919
506.623	117.774
506.832	144.83567
507.042	138.13703
507.251	169.20775
507.461	158.39038
507.67	152.80426
507.88	126.40035
508.089	139.43629
508.299	145.87754
508.508	145.95872
508.718	111.4481
508.927	140.15356
509.137	154.44099
509.346	155.04966
509.555	124.17969
509.765	124.26094
509.974	233.9436
510.184	147.43349
510.393	122.487
510.602	133.71098
510.812	165.54384
511.021	141.93989
511.23	180.14256
511.439	131.81582
511.649	126.45451
511.858	143.48254
512.067	147.82585
512.276	150.34223
512.486	251.14918
512.695	150.50456
512.904	127.34813
513.113	134.03585
513.322	145.28219
513.531	157.78178
513.741	159.89154
513.95	119.90037
514.159	146.90583
514.368	123.82762
514.577	123.19118
514.786	112.93827
514.995	117.71983
515.204	153.04775
515.413	109.1585
515.622	126.57637
515.831	137.2979
516.04	127.90325
516.249	106.35381
516.458	121.98595
516.667	146.91936
516.876	156.94324
517.085	127.11796
517.294	146.14814
517.503	121.56614
517.712	135.61955
517.921	136.48581
518.13	160.21611
518.339	138.40772
518.547	198.12366
518.756	113.73751
518.965	138.92201
519.174	135.49773
519.383	142.88714
519.591	116.74462
519.8	108.31847
520.009	133.30489
520.218	129.71745
520.426	115.24111
520.635	159.66164
520.844	133.00708
521.053	155.68538
521.261	153.00717
521.47	153.77819
521.679	126.0483
521.887	147.48761
522.096	126.793
522.304	121.57968
522.513	107.9933
522.722	123.787
522.93	152.03321
523.139	143.48254
523.347	102.65443
523.556	112.59961
523.764	106.10991
523.973	133.48086
524.182	115.5662
524.39	154.44099
524.598	107.9933
524.807	110.48622
525.015	114.59092
525.224	136.63469
525.432	126.31911
525.641	119.91391
525.849	139.51749
526.057	133.00708
526.266	148.61055
526.474	120.02226
526.683	112.95182
526.891	163.90777
527.099	115.59329
527.308	138.55659
527.516	107.70876
527.724	159.70221
527.932	110.73008
528.141	150.99158
528.349	173.22264
528.557	125.9129
528.765	112.88409
528.974	105.85245
529.182	107.912
529.39	126.2514
529.598	100.03881
529.806	111.4752
530.015	143.07659
530.223	141.00614
530.431	102.68153
530.639	91.62106
530.847	100.94685
531.055	139.12502
531.263	124.87028
531.471	87.1468
531.679	99.1714
531.887	135.66016
532.095	134.03585
532.303	152.03321
532.511	104.70067
532.719	113.35822
532.927	113.7917
533.135	140.66782
533.343	161.70365
533.551	140.32949
533.759	126.98256
533.967	158.17399
534.175	126.88778
534.383	155.23903
534.591	143.5502
534.798	149.3817
535.006	106.02861
535.214	128.91867
535.422	111.31263
535.63	159.32354
535.837	104.63291
536.045	132.41145
536.253	121.75573
536.461	133.72452
536.668	119.941
536.876	153.39945
537.084	148.79996
537.292	149.13818
537.499	151.24861
537.707	135.89026
537.915	143.69905
538.122	160.64885
538.33	157.66006
538.538	145.95872
538.745	145.20101
538.953	178.02081
539.16	132.64158
539.368	128.49897
539.575	114.37418
539.783	133.12891
539.99	172.16828
540.198	142.63004
540.406	136.60762
540.613	139.90996
540.82	130.01529
541.028	148.59702
541.235	147.20349
541.443	158.99897
541.65	185.16924
541.858	158.76906
542.065	127.83555
542.272	136.43167
542.48	194.66613
542.687	125.03277
542.895	158.07932
543.102	134.9157
543.309	143.73964
543.516	156.60511
543.724	141.26327
543.931	135.48419
544.138	145.53927
544.346	130.73281
544.553	141.00614
544.76	141.91283
544.967	131.16602
545.174	148.10997
545.382	135.61955
545.589	155.87474
545.796	171.20851
546.003	119.20966
546.21	136.7159
546.417	180.69662
546.624	146.51346
546.832	143.17131
547.039	133.33196
547.246	167.15278
547.453	136.85125
547.66	122.40575
547.867	141.12794
548.074	142.35939
548.281	132.95293
548.488	134.67205
548.695	126.07538
548.902	136.53995
549.109	123.66513
549.316	113.48013
549.523	112.07127
549.73	133.76513
549.936	134.75326
550.143	127.70016
550.35	105.01233
550.557	115.85065
550.764	105.77115
550.971	143.60433
551.178	130.36728
551.384	149.23289
551.591	160.17554
551.798	159.55345
552.005	139.34155
552.211	142.35939
552.418	146.66229
552.625	107.12614
552.832	139.09795
553.038	133.31842
553.245	160.35134
553.452	148.25879
553.658	122.35158
553.865	125.31712
554.072	139.72049
554.278	142.87361
554.485	172.65491
554.691	170.6137
554.898	124.59946
555.105	151.89793
555.311	127.83555
555.518	156.55101
555.724	154.98203
555.931	113.14147
556.137	119.91391
556.344	139.62576
556.55	135.78197
556.757	143.86143
556.963	124.58592
557.17	143.06306
557.376	153.65645
557.582	186.89864
557.789	137.41971
557.995	129.29776
558.202	124.81612
558.408	138.86787
558.614	125.12755
558.821	141.92636
559.027	147.2982
559.233	145.22807
559.439	172.8847
559.646	138.8002
559.852	159.59402
560.058	155.92884
560.264	152.00615
560.471	145.94519
560.677	163.36689
560.883	184.34503
561.089	174.723
561.295	138.97614
561.502	130.06944
561.708	133.46732
561.914	159.35059
562.12	153.29123
562.326	148.84055
562.532	170.03241
562.738	167.47726
562.944	137.86635
563.15	155.07672
563.356	126.10246
563.562	146.09402
563.768	153.64293
563.974	106.52995
564.18	152.35786
564.386	137.43324
564.592	121.20049
564.798	135.68723
565.004	175.39881
565.21	109.17204
565.416	162.86658
565.622	146.39169
565.828	175.68265
566.034	174.08772
566.239	133.96817
566.445	179.4128
566.651	168.2614
566.857	202.74204
567.063	186.75003
567.268	182.8587
567.474	190.92449
567.68	194.30144
567.886	220.034
