Data from deut_20ms_200_SR4014911__0__16-09-37-096.txt Node

Date: Sun Jul 13 16:09:37 EDT 2025
User: cryst
Spectrometer: SR401491
Trigger mode: 0
Integration Time (sec): 2.000000E-2
Scans to average: 200
Electric dark correction enabled: true
Nonlinearity correction enabled: true
Boxcar width: 0
XAxis mode: Wavelengths
Number of Pixels in Spectrum: 3648
>>>>>Begin Spectral Data<<<<<
344.912	-37.27405
345.129	-26.92804
345.347	-28.38245
345.565	-14.20137
345.783	8.15479
346.001	8.55733
346.219	4.04198
346.437	-0.06602
346.654	21.69643
346.872	15.07875
347.09	1.52829
347.308	18.4884
347.526	3.40542
347.743	9.04146
347.961	16.77003
348.179	14.10526
348.397	8.45398
348.614	33.9541
348.832	35.68222
349.05	38.27419
349.268	36.33431
349.485	43.41936
349.703	25.87174
349.921	44.39721
350.138	37.04073
350.356	42.8272
350.574	27.80695
350.791	37.79603
351.009	37.61128
351.227	47.51522
351.444	25.21395
351.662	37.98077
351.879	27.46449
352.097	42.59359
352.314	27.80151
352.532	40.75182
352.75	29.15498
352.967	34.00301
353.185	36.12238
353.402	38.3394
353.62	25.92066
353.837	49.69327
354.055	32.93239
354.272	44.95131
354.49	44.99476
354.707	49.0578
354.925	29.55177
355.142	42.41974
355.359	40.90395
355.577	45.84219
355.794	43.3596
356.012	46.70588
356.229	38.85559
356.446	35.90502
356.664	35.35073
356.881	50.18752
357.099	22.41955
357.316	39.77927
357.533	42.76201
357.751	39.7684
357.968	53.82076
358.185	51.71908
358.402	39.95314
358.62	45.46194
358.837	42.8435
359.054	35.50289
359.272	23.97445
359.489	41.17017
359.706	41.51245
359.923	43.84853
360.141	37.39393
360.358	48.17246
360.575	40.03464
360.792	39.90967
361.009	26.66541
361.226	40.68119
361.444	50.2364
361.661	51.09995
361.878	29.48655
362.095	40.1759
362.312	35.87242
362.529	50.05174
362.746	36.5245
362.963	33.14434
363.181	31.28018
363.398	48.9709
363.615	44.94587
363.832	38.55131
364.049	29.7094
364.266	59.343
364.483	39.92597
364.7	44.39721
364.917	23.8929
365.134	41.51788
365.351	33.92149
365.568	44.03867
365.785	35.92676
366.002	37.31242
366.219	28.53533
366.436	41.02891
366.652	46.51033
366.869	45.89108
367.086	35.20401
367.303	39.38807
367.52	38.18182
367.737	53.53295
367.954	45.11427
368.171	39.20876
368.387	48.4549
368.604	42.84893
368.821	42.8435
369.038	39.12183
369.255	40.57796
369.471	37.75799
369.688	42.61532
369.905	50.48624
370.122	42.78917
370.339	43.21292
370.555	31.55737
370.772	31.4541
370.989	51.34435
371.205	40.58882
371.422	42.197
371.639	29.66048
371.855	40.08353
372.072	37.27438
372.289	39.28483
372.505	58.5123
372.722	29.31261
372.939	49.37282
373.155	46.32564
373.372	40.74639
373.589	43.68012
373.805	43.14229
374.022	36.2202
374.238	34.53015
374.455	36.11152
374.671	40.02377
374.888	38.3394
375.104	28.67122
375.321	32.70413
375.537	34.57363
375.754	41.60481
375.97	50.60029
376.187	52.76723
376.403	37.78516
376.62	41.2571
376.836	41.09954
377.053	35.49202
377.269	38.39917
377.486	29.06258
377.702	25.7902
377.918	25.63798
378.135	40.59969
378.351	42.39801
378.568	36.63862
378.784	38.26333
379	40.2737
379.217	24.53984
379.433	42.73484
379.649	46.13009
379.865	38.35026
380.082	46.40169
380.298	45.69552
380.514	46.93402
380.731	39.83904
380.947	28.3179
381.163	44.32115
381.379	39.13813
381.596	45.42391
381.812	41.56678
382.028	48.94374
382.244	31.82912
382.46	38.41547
382.676	46.86884
382.893	42.82177
383.109	32.53022
383.325	43.21835
383.541	39.71407
383.757	25.15415
383.973	35.71482
384.189	54.56473
384.405	33.76932
384.622	45.18489
384.838	44.38091
385.054	47.03722
385.27	36.16586
385.486	39.7684
385.702	32.14434
385.918	45.98885
386.134	41.15387
386.35	47.45004
386.566	48.8514
386.782	49.49774
386.998	39.00229
387.214	45.51083
387.43	40.74095
387.646	63.85987
387.861	45.65206
388.077	47.38486
388.293	43.59863
388.509	49.11212
388.725	30.37794
388.941	44.40807
389.157	37.83406
389.373	55.29239
389.588	45.77157
389.804	44.39178
390.02	51.09452
390.236	39.44783
390.452	38.49154
390.668	48.50379
390.883	40.74095
391.099	46.14638
391.315	34.6008
391.531	44.25053
391.746	40.81702
391.962	54.21719
392.178	41.52875
392.393	48.47663
392.609	52.96273
392.825	44.00607
393.041	41.09954
393.256	51.69736
393.472	43.71272
393.687	50.03544
393.903	49.82906
394.119	48.5581
394.334	39.68147
394.55	62.44843
394.766	54.0054
394.981	67.19274
395.197	52.62603
395.412	72.79907
395.628	54.40182
395.843	55.10776
396.059	80.44416
396.274	64.305
396.49	63.28444
396.705	51.64848
396.921	38.4209
397.136	52.91386
397.352	44.34288
397.567	52.54457
397.783	43.71272
397.998	64.09872
398.214	42.18613
398.429	46.99377
398.644	64.5167
398.86	52.89756
399.075	48.79166
399.29	46.55378
399.506	39.08379
399.721	46.05947
399.936	46.61353
400.152	47.09154
400.367	42.24046
400.582	51.88201
400.798	50.87728
401.013	39.99117
401.228	54.08686
401.444	55.77567
401.659	41.83299
401.874	60.44515
402.089	52.51741
402.304	61.32465
402.52	42.37628
402.735	47.54781
402.95	39.36633
403.165	59.5276
403.38	55.49873
403.596	44.4135
403.811	48.15616
404.026	65.48836
404.241	43.63666
404.456	50.1495
404.671	54.15745
404.886	59.5276
405.101	32.56282
405.316	56.65533
405.532	55.64535
405.747	56.23179
405.962	53.44606
406.177	54.87969
406.392	43.50628
406.607	67.48041
406.822	51.19771
407.037	64.20186
407.252	73.72701
407.467	82.49478
407.682	76.90131
407.896	83.96484
408.111	69.19009
408.326	93.10346
408.541	97.90204
408.756	118.63197
408.971	112.2277
409.186	119.21706
409.401	101.5072
409.616	68.54965
409.83	43.00104
410.045	51.23573
410.26	33.9867
410.475	42.62619
410.69	39.43697
410.905	55.3304
411.119	40.69749
411.334	58.57202
411.549	39.06206
411.764	56.93768
411.978	56.23179
412.193	57.73043
412.408	34.11713
412.623	50.21468
412.837	56.61189
413.052	49.15014
413.267	50.75236
413.481	52.04493
413.696	39.99117
413.911	54.09229
414.125	37.08963
414.34	41.83299
414.554	40.1596
414.769	58.46886
414.984	45.95083
415.198	31.47041
415.413	36.07891
415.627	56.83452
415.842	41.46898
416.056	56.64447
416.271	39.44783
416.485	60.37457
416.7	47.75965
416.914	56.40012
417.129	41.18103
417.343	59.83707
417.558	45.72268
417.772	55.10233
417.987	43.88112
418.201	44.56018
418.415	34.68231
418.63	50.05174
418.844	45.20119
419.059	60.51572
419.273	44.38634
419.487	58.46886
419.702	48.4712
419.916	68.22943
420.13	57.20375
420.345	50.94788
420.559	37.58955
420.773	58.07793
420.988	43.23465
421.202	64.56556
421.416	41.20277
421.63	55.08061
421.845	47.18932
422.059	55.24351
422.273	37.98621
422.487	57.61098
422.701	62.33442
422.916	70.4058
423.13	45.46194
423.344	57.07886
423.558	40.31716
423.772	48.37886
423.986	45.64663
424.201	47.9389
424.415	58.83264
424.629	52.57715
424.843	48.37886
425.057	62.06841
425.271	36.18759
425.485	46.7602
425.699	39.92597
425.913	62.22042
426.127	43.62036
426.341	52.07752
426.555	48.59612
426.769	59.38101
426.983	59.70677
427.197	58.77291
427.411	45.26638
427.625	60.5483
427.839	43.50085
428.053	50.74693
428.267	38.31766
428.481	61.29751
428.695	42.33282
428.908	45.72811
429.122	48.17246
429.336	59.41359
429.55	50.05174
429.764	55.26523
429.978	68.19143
430.191	80.82934
430.405	98.62311
430.619	104.67826
430.833	121.24852
431.047	163.80428
431.26	205.77661
431.474	256.45907
431.688	265.04561
431.901	289.58375
432.115	331.26454
432.329	386.24285
432.543	410.22452
432.756	486.4324
432.97	490.80268
433.184	356.13934
433.397	160.37496
433.611	69.79795
433.824	52.4794
434.038	59.5819
434.252	49.17729
434.465	56.98112
434.679	47.47177
434.892	53.72844
435.106	34.94316
435.319	45.34786
435.533	59.16926
435.747	58.8815
435.96	37.01356
436.174	62.43757
436.387	51.09995
436.601	50.30701
436.814	57.16031
437.027	48.85684
437.241	49.75845
437.454	46.93402
437.668	55.04803
437.881	62.61129
438.095	51.02391
438.308	62.57872
438.521	56.15577
438.735	61.40066
438.948	57.41008
439.161	58.25711
439.375	39.15443
439.588	58.9358
439.801	53.13651
440.015	61.96527
440.228	53.58725
440.441	66.35684
440.654	64.15843
440.868	78.29572
441.081	47.19475
441.294	68.70705
441.507	47.89001
441.721	49.20988
441.934	58.42
442.147	52.56086
442.36	52.90299
442.573	60.7166
442.786	45.17946
443	67.80607
443.213	50.02458
443.426	59.52217
443.639	61.27579
443.852	60.75461
444.065	66.56853
444.278	65.4775
444.491	67.24701
444.704	62.86101
444.917	58.65347
445.13	68.6582
445.343	56.25351
445.556	74.9805
445.769	70.27012
445.982	78.83284
446.195	59.37015
446.408	60.75461
446.621	67.96347
446.834	60.5103
447.047	56.30238
447.26	63.22473
447.473	48.82968
447.686	65.88461
447.899	55.98201
448.111	63.95215
448.324	66.79108
448.537	59.5819
448.75	50.02458
448.963	55.8354
449.176	68.28913
449.388	70.24298
449.601	62.96415
449.814	54.59731
450.027	53.4895
450.239	63.5233
450.452	49.8888
450.665	53.98911
450.878	51.64305
451.09	65.64577
451.303	58.47972
451.516	55.2761
451.728	60.57544
451.941	50.06803
452.154	55.42814
452.366	73.63476
452.579	51.33891
452.792	70.09645
453.004	59.27785
453.217	56.64447
453.429	57.3775
453.642	57.78473
453.854	58.25168
454.067	80.13492
454.28	81.42609
454.492	48.48206
454.705	52.35992
454.917	52.4794
455.13	66.17772
455.342	69.30949
455.555	41.17017
455.767	81.59969
455.979	56.82909
456.192	64.71755
456.404	48.92201
456.617	65.14095
456.829	47.59127
457.041	68.68534
457.254	62.61129
457.466	53.83162
457.679	58.63175
457.891	78.34997
458.103	51.97433
458.315	63.84901
458.528	56.23722
458.74	60.23884
458.952	55.86798
459.165	64.4787
459.377	50.06803
459.589	51.17055
459.801	43.55517
460.014	68.29998
460.226	59.1204
460.438	60.17912
460.65	45.99429
460.862	68.89701
461.075	50.46994
461.287	53.3646
461.499	40.62142
461.711	48.53094
461.923	49.15557
462.135	63.93586
462.347	54.19003
462.559	57.90418
462.771	50.45365
462.983	52.78895
463.196	60.02167
463.408	68.62021
463.62	58.5503
463.832	71.14388
464.044	55.93314
464.256	72.54944
464.468	47.76508
464.68	65.77062
464.891	56.19921
465.103	58.19738
465.315	63.33873
465.527	58.02363
465.739	39.77927
465.951	57.52953
466.163	50.33959
466.375	51.87658
466.587	58.05078
466.799	51.29547
467.01	45.42391
467.222	58.24082
467.434	54.33665
467.646	55.6182
467.858	51.88744
468.069	60.72746
468.281	42.5121
468.493	49.31851
468.705	39.26853
468.916	50.95874
469.128	39.51303
469.34	45.61947
469.551	39.4424
469.763	38.68171
469.975	42.4795
470.186	54.74393
470.398	37.79059
470.61	48.68303
470.821	32.49217
471.033	42.39801
471.245	59.7502
471.456	51.19771
471.668	47.84656
471.879	46.44514
472.091	48.76993
472.302	61.93269
472.514	57.18746
472.725	55.2761
472.937	36.86684
473.148	44.80463
473.36	43.22922
473.571	63.09987
473.783	38.49697
473.994	61.04235
474.206	37.36676
474.417	55.85712
474.629	52.98445
474.84	63.38759
475.051	61.00977
475.263	50.63831
475.474	43.84853
475.685	52.71292
475.897	46.96118
476.108	67.13846
476.319	38.46437
476.531	46.95575
476.742	56.40555
476.953	60.31485
477.165	68.21857
477.376	52.64232
477.587	48.34084
477.798	51.84399
478.01	41.85472
478.221	60.35285
478.432	52.20786
478.643	47.93347
478.854	50.38304
479.065	76.70598
479.277	54.36924
479.488	60.18997
479.699	60.18997
479.91	65.8249
480.121	62.07384
480.332	65.32008
480.543	55.36841
480.754	51.58331
480.965	44.0278
481.176	66.3677
481.387	64.02272
481.598	65.80319
481.809	66.63367
482.02	97.99963
482.231	205.55519
482.442	408.64779
482.653	786.78655
482.864	1308.75779
483.075	2095.55279
483.286	3067.0567
483.497	4195.7023
483.708	5089.10178
483.919	5827.73978
484.13	6521.04443
484.341	7434.25158
484.551	8751.36882
484.762	9882.39426
484.973	10203.95266
485.184	6895.49279
485.395	2107.06216
485.605	581.77691
485.816	264.97555
486.027	149.0617
486.238	112.15725
486.449	107.2311
486.659	92.84318
486.87	75.92464
487.081	85.26125
487.291	68.44653
487.502	73.66189
487.713	60.33113
487.923	72.10444
488.134	59.04439
488.345	86.98608
488.555	74.66035
488.766	57.73586
488.976	66.28628
489.187	75.85953
489.398	65.92803
489.608	79.89079
489.819	59.59275
490.029	57.58383
490.24	71.13845
490.45	84.45303
490.661	57.62727
490.871	59.18012
491.082	57.07886
491.292	63.55587
491.503	57.68156
491.713	76.95557
491.924	64.89125
492.134	72.63626
492.344	63.27901
492.555	73.58049
492.765	63.17587
492.975	74.92081
493.186	69.81423
493.396	78.16008
493.607	53.294
493.817	82.38086
494.027	61.89469
494.237	65.64034
494.448	52.76723
494.658	76.57034
494.868	50.87184
495.078	66.75308
495.289	71.86024
495.499	63.11073
495.709	54.08686
495.919	65.29294
496.129	58.15395
496.34	55.85712
496.55	45.14144
496.76	63.17587
496.97	62.43757
497.18	56.06889
497.39	51.79511
497.6	66.88878
497.81	70.36781
498.021	70.03675
498.231	67.74094
498.441	65.29837
498.651	61.41152
498.861	57.35035
499.071	59.73935
499.281	72.86961
499.491	53.00075
499.701	74.42702
499.911	58.98466
500.121	72.83163
500.331	58.38199
500.54	82.30491
500.75	63.2953
500.96	68.57136
501.17	47.09154
501.38	64.90211
501.59	65.76519
501.8	66.15058
502.01	48.08012
502.219	74.1774
502.429	65.81947
502.639	77.31367
502.849	66.45997
503.059	70.69886
503.268	63.3713
503.478	57.39379
503.688	61.16178
503.898	62.46471
504.107	56.11776
504.317	79.41336
504.527	67.94719
504.736	67.58896
504.946	56.86167
505.156	71.67572
505.365	59.20184
505.575	60.0271
505.785	61.71554
505.994	68.15887
506.204	51.8277
506.413	64.56556
506.623	51.44753
506.832	59.32672
507.042	61.48209
507.251	67.83864
507.461	63.20301
507.67	69.71112
507.88	52.56086
508.089	64.62527
508.299	58.89779
508.508	66.70423
508.718	51.07279
508.927	62.94244
509.137	68.47367
509.346	67.99604
509.555	58.48515
509.765	68.186
509.974	96.35141
510.184	67.02447
510.393	57.05171
510.602	67.46413
510.812	70.25927
511.021	66.62824
511.23	76.32617
511.439	59.28328
511.649	51.38779
511.858	72.57657
512.067	58.26254
512.276	68.94043
512.486	97.94
512.695	69.65684
512.904	45.9454
513.113	63.65358
513.322	60.1954
513.531	70.66087
513.741	63.58844
513.95	53.78818
514.159	52.77809
514.368	61.98698
514.577	49.38369
514.786	61.37894
514.995	47.72706
515.204	60.03253
515.413	45.3207
515.622	55.85169
515.831	49.41084
516.04	65.0161
516.249	46.9829
516.458	56.67705
516.667	55.98744
516.876	73.87352
517.085	57.725
517.294	68.34883
517.503	57.89875
517.712	65.59149
517.921	58.64261
518.13	70.08017
518.339	61.58524
518.547	82.33204
518.756	47.43918
518.965	59.07696
519.174	48.84054
519.383	65.49378
519.591	54.49414
519.8	48.17246
520.009	53.66871
520.218	65.12467
520.426	48.89486
520.635	63.89244
520.844	59.83707
521.053	70.12901
521.261	62.25299
521.47	69.40176
521.679	51.88744
521.887	60.56459
522.096	51.1271
522.304	51.55072
522.513	42.45234
522.722	55.91685
522.93	67.15474
523.139	64.26157
523.347	48.1453
523.556	57.19832
523.764	44.0604
523.973	57.60012
524.182	45.38589
524.39	63.27901
524.598	53.59811
524.807	55.68336
525.015	44.8155
525.224	55.71051
525.432	56.63361
525.641	51.43667
525.849	55.41728
526.057	66.10173
526.266	64.98353
526.474	56.99741
526.683	47.20018
526.891	73.46111
527.099	55.30868
527.308	67.36643
527.516	45.65749
527.724	64.73926
527.932	50.4102
528.141	62.74158
528.349	65.75976
528.557	61.58524
528.765	46.8634
528.974	41.15387
529.182	48.19419
529.39	64.93468
529.598	54.0597
529.806	53.01161
530.015	52.30018
530.223	52.40337
530.431	40.68119
530.639	46.59724
530.847	48.19419
531.055	57.57297
531.263	53.01704
531.471	54.28778
531.679	49.01978
531.887	59.37558
532.095	55.2055
532.303	63.2193
532.511	45.28267
532.719	58.82721
532.927	58.25711
533.135	59.09868
533.343	63.40387
533.551	61.0532
533.759	47.35227
533.967	67.58354
534.175	53.28857
534.383	70.37324
534.591	63.5613
534.798	66.75308
535.006	52.61517
535.214	60.75461
535.422	55.10233
535.63	72.85333
535.837	45.43478
536.045	59.94566
536.253	56.36211
536.461	62.9533
536.668	55.47701
536.876	70.43294
537.084	69.5483
537.292	68.05031
537.499	61.92726
537.707	70.10188
537.915	66.04745
538.122	74.9805
538.33	62.09013
538.538	67.64867
538.745	67.70837
538.953	73.45026
539.16	49.17186
539.368	53.78275
539.575	43.40849
539.783	63.78387
539.99	62.68186
540.198	64.70669
540.406	56.80737
540.613	64.36471
540.82	48.24307
541.028	67.00819
541.235	50.75236
541.443	74.89368
541.65	72.05017
541.858	67.47498
542.065	55.7268
542.272	65.71091
542.48	74.50841
542.687	60.01081
542.895	64.25614
543.102	67.89291
543.309	58.68061
543.516	67.34471
543.724	65.36351
543.931	59.14755
544.138	64.54384
544.346	68.28913
544.553	58.96838
544.76	63.46901
544.967	57.91504
545.174	68.46824
545.382	60.2497
545.589	65.73262
545.796	63.13244
546.003	55.23265
546.21	58.39828
546.417	81.11687
546.624	57.36664
546.832	66.27542
547.039	60.55373
547.246	77.06409
547.453	56.88339
547.66	67.80607
547.867	62.70901
548.074	57.64899
548.281	56.41098
548.488	54.17917
548.695	53.34831
548.902	63.62101
549.109	60.08139
549.316	55.46615
549.523	51.00762
549.73	61.91641
549.936	58.47972
550.143	57.50238
550.35	55.16206
550.557	68.37597
550.764	44.40807
550.971	64.153
551.178	51.33891
551.384	68.49538
551.591	69.55915
551.798	67.97433
552.005	54.89055
552.211	68.224
552.418	49.83992
552.625	54.98829
552.832	55.50959
553.038	67.9092
553.245	64.50585
553.452	67.65952
553.658	62.01955
553.865	59.33215
554.072	50.62201
554.278	69.97162
554.485	73.40684
554.691	70.99735
554.898	61.67753
555.105	70.76399
555.311	55.07518
555.518	66.80193
555.724	62.33985
555.931	54.75479
556.137	47.54238
556.344	64.67955
556.55	58.41457
556.757	69.78167
556.963	60.09768
557.17	55.21636
557.376	56.487
557.582	79.22347
557.789	50.86098
557.995	67.58896
558.202	55.61277
558.408	66.56311
558.614	52.30018
558.821	66.25371
559.027	64.13129
559.233	69.97705
559.439	78.50189
559.646	64.229
559.852	63.59387
560.058	76.03859
560.264	64.75555
560.471	65.86289
560.677	65.18981
560.883	71.76255
561.089	70.05303
561.295	61.73725
561.502	53.82619
561.708	68.29456
561.914	59.59818
562.12	80.76424
562.326	58.06707
562.532	81.40439
562.738	68.09916
562.944	68.43025
563.15	64.6307
563.356	59.63619
563.562	60.2497
563.768	67.07333
563.974	54.01083
564.18	75.16499
564.386	53.21254
564.592	63.51787
564.798	50.86641
565.004	79.01731
565.21	53.08764
565.416	69.5483
565.622	61.62325
565.828	76.79822
566.034	74.45957
566.239	71.41523
566.445	72.92388
566.651	78.8437
566.857	85.69518
567.063	75.44172
567.268	71.39895
567.474	92.24126
567.68	79.294
567.886	100.87295
568.091	98.57974
568.297	104.91133
568.503	95.02842
568.708	115.59257
568.914	107.16065
569.12	118.64281
569.325	89.07417
569.531	109.95712
569.737	85.90672
569.942	100.4501
570.148	98.99719
570.353	126.90872
570.559	114.49266
570.765	108.8028
570.97	112.93755
571.176	138.8482
571.381	99.36043
571.587	90.15883
571.792	88.46674
571.998	99.69655
572.203	92.69134
572.408	123.45316
572.614	129.97395
572.819	129.6707
573.025	112.10848
573.23	120.32761
573.435	120.80432
573.641	122.87358
573.846	97.82614
574.051	117.40758
574.257	122.14231
574.462	127.22284
574.667	109.45313
574.873	115.67926
575.078	127.74276
575.283	126.77874
575.488	132.40532
575.694	148.42313
575.899	108.9708
576.104	132.23746
576.309	128.97211
576.514	139.91465
576.719	158.91981
576.925	182.64718
577.13	160.283
577.335	147.98478
