Data from deutdg_571ms_7_SR4014911__0__16-49-19-706.txt Node

Date: Sun Jul 13 16:49:19 EDT 2025
User: cryst
Spectrometer: SR401491
Trigger mode: 0
Integration Time (sec): 5.710000E-1
Scans to average: 7
Electric dark correction enabled: true
Nonlinearity correction enabled: true
Boxcar width: 0
XAxis mode: Wavelengths
Number of Pixels in Spectrum: 3648
>>>>>Begin Spectral Data<<<<<
344.912	-1073.55661
345.129	-1041.28994
345.347	-1062.79511
345.565	-1040.15017
345.783	471.44563
346.001	251.51147
346.219	247.65985
346.437	311.83771
346.654	714.26638
346.872	209.57781
347.09	-125.25767
347.308	600.09138
347.526	365.28842
347.743	154.29053
347.961	883.37486
348.179	440.84669
348.397	507.97163
348.614	779.91874
348.832	1051.23576
349.05	1093.00862
349.268	1149.13569
349.485	1236.3202
349.703	976.28993
349.921	1436.95623
350.138	1330.63558
350.356	1351.83114
350.574	882.6197
350.791	1092.85844
351.009	1287.01697
351.227	1130.23556
351.444	993.00773
351.662	1112.67729
351.879	1021.90731
352.097	1174.32182
352.314	968.90761
352.532	1171.17443
352.75	1296.58109
352.967	1339.2942
353.185	1304.79851
353.402	1056.79809
353.62	1015.43695
353.837	1403.28386
354.055	1219.70677
354.272	1436.95623
354.49	1705.00186
354.707	1638.02172
354.925	1054.54319
355.142	1337.20435
355.359	1499.91172
355.577	1496.34213
355.794	1447.38051
356.012	1751.18297
356.229	1361.38063
356.446	1144.03655
356.664	1411.03377
356.881	1655.2201
357.099	1236.17056
357.316	1228.98718
357.533	1425.18872
357.751	1062.8105
357.968	2093.75791
358.185	1504.96816
358.402	1313.01432
358.62	1599.59962
358.837	1610.87727
359.054	1103.21955
359.272	1108.92449
359.489	1214.31717
359.706	1267.58308
359.923	1521.91801
360.141	1333.17363
360.358	1549.41104
360.575	1425.9336
360.792	1249.63601
361.009	1277.00218
361.226	1346.01087
361.444	1836.62561
361.661	1419.37829
361.878	1392.9982
362.095	1196.79601
362.312	1591.13963
362.529	1483.99514
362.746	1475.0675
362.963	1072.4284
363.181	1115.37907
363.398	1332.27787
363.615	1839.28419
363.832	1153.93428
364.049	1079.33977
364.266	1856.56169
364.483	1490.24344
364.7	1295.23627
364.917	992.10426
365.134	1409.09642
365.351	1357.94902
365.568	1580.74808
365.785	1253.07647
366.002	1061.15718
366.219	1265.19059
366.436	1583.56887
366.652	1658.33295
366.869	1272.06863
367.086	1719.6601
367.303	1065.66607
367.52	1219.55706
367.737	1698.33758
367.954	1556.54169
368.171	1324.51377
368.387	1994.14039
368.604	1327.35082
368.821	1479.23395
369.038	1229.28651
369.255	1511.06488
369.471	1011.67459
369.688	1737.27391
369.905	1612.95444
370.122	1515.97141
370.339	1501.25025
370.555	1170.5749
370.772	1095.41144
370.989	2041.10135
371.205	1226.14341
371.422	1422.3581
371.639	1258.61052
371.855	1873.09554
372.072	1265.48966
372.289	1159.63185
372.505	1801.16491
372.722	1111.0261
372.939	1357.20299
373.155	1711.96136
373.372	1223.29943
373.589	1553.57072
373.805	1302.55755
374.022	1223.29943
374.238	1110.72588
374.455	1564.85941
374.671	1584.45961
374.888	1552.08516
375.104	922.77211
375.321	1048.37911
375.537	1227.19113
375.754	1530.09333
375.97	1384.3504
376.187	1931.07129
376.403	1243.35268
376.62	1453.63391
376.836	1229.58584
377.053	1349.89114
377.269	1234.07554
377.486	1142.2367
377.702	781.88788
377.918	991.95368
378.135	1382.85923
378.351	1599.74803
378.568	1231.08246
378.784	1316.74825
379	1423.40098
379.217	1236.02092
379.433	1120.93216
379.649	1616.07003
379.865	1304.05154
380.082	1856.85698
380.298	1183.76252
380.514	1926.7953
380.731	1346.60786
380.947	1118.53092
381.163	1436.65835
381.379	1348.39877
381.596	1403.58196
381.812	1751.47886
382.028	1486.67309
382.244	1391.35823
382.46	1181.66478
382.676	1882.39357
382.893	1491.731
383.109	1348.99572
383.325	1295.98339
383.541	1703.52098
383.757	852.09789
383.973	1457.95122
384.189	1680.26546
384.405	1458.10009
384.622	1354.81558
384.838	1578.0756
385.054	1474.17463
385.27	1786.38244
385.486	1300.6153
385.702	1155.7336
385.918	1527.12065
386.134	1517.90414
386.35	1624.67392
386.566	1818.89828
386.782	1750.59117
386.998	1819.34154
387.214	1592.32709
387.43	1623.78393
387.646	1985.74513
387.861	1703.81716
388.077	1609.5419
388.293	1736.97793
388.509	1755.91709
388.725	1573.47263
388.941	1595.74087
389.157	1451.40066
389.373	1505.11687
389.588	1756.36089
389.804	1543.3194
390.02	1952.00406
390.236	1336.15938
390.452	1446.93381
390.668	1481.31703
390.883	1959.66759
391.099	1667.0775
391.315	1691.96866
391.531	1434.2753
391.746	1540.34758
391.962	1622.74559
392.178	1667.96669
392.393	1516.41743
392.609	2165.313
392.825	1587.72551
393.041	1439.48806
393.256	1782.53831
393.472	1786.38244
393.687	1767.30676
393.903	2045.81003
394.119	1830.12629
394.334	1866.89595
394.55	2124.32993
394.766	1729.28186
394.981	2047.42855
395.197	2065.81764
395.412	2273.00161
395.628	2213.75194
395.843	2358.26013
396.059	3042.28146
396.274	2179.40828
396.49	2576.63037
396.705	1908.21297
396.921	1467.92411
397.136	1854.49459
397.352	1845.48702
397.567	1684.11746
397.783	1785.34751
397.998	1801.16491
398.214	1868.22449
398.429	1474.62107
398.644	2296.15847
398.86	1673.1533
399.075	1970.12954
399.29	1645.2873
399.506	1547.47963
399.721	1714.18228
399.936	1572.73017
400.152	1525.18831
400.367	1767.89836
400.582	1719.6601
400.798	2026.38422
401.013	1399.11026
401.228	1878.4089
401.444	1932.39825
401.659	1790.6698
401.874	2155.32687
402.089	1853.1657
402.304	1874.71912
402.52	1851.09848
402.735	1514.48464
402.95	1506.15783
403.165	1882.83629
403.38	2179.8487
403.596	1708.70384
403.811	1956.27808
404.026	2422.49769
404.241	1660.85273
404.456	1680.70994
404.671	2235.90378
404.886	2024.7651
405.101	1720.99246
405.316	1863.94351
405.532	2296.74461
405.747	1950.38279
405.962	2007.3935
406.177	1860.10509
406.392	1825.399
406.607	2200.69186
406.822	2266.55138
407.037	2406.70003
407.252	2898.78559
407.467	2890.64531
407.682	2980.29237
407.896	3318.93862
408.111	3313.00451
408.326	3514.88026
408.541	4236.35901
408.756	4664.36431
408.971	4844.8951
409.186	4949.46453
409.401	4296.75144
409.616	2514.14088
409.83	1941.98091
410.045	1710.77683
410.26	1582.23273
410.475	1515.52538
410.69	1859.80981
410.905	1865.27213
411.119	1390.46368
411.334	1658.77763
411.549	1740.82552
411.764	2009.89652
411.978	2137.99406
412.193	1834.26231
412.408	1729.7259
412.623	1402.38955
412.837	2233.70361
413.052	1940.21193
413.267	1989.42741
413.481	1762.86953
413.696	1584.90497
413.911	1602.41929
414.125	1614.43808
414.34	1469.71006
414.554	1649.88333
414.769	1944.63428
414.984	1718.03162
415.198	1308.83193
415.413	1481.76339
415.627	1880.62264
415.842	1644.69424
416.056	1837.65952
416.271	1598.26394
416.485	1781.05971
416.7	1832.93291
416.914	1664.26163
417.129	1636.39052
417.343	1898.77189
417.558	1714.03422
417.772	1991.93123
417.987	1827.31951
418.201	1659.37052
418.415	1463.01237
418.63	1775.88431
418.844	1747.04025
419.059	2053.90218
419.273	1731.20599
419.487	2232.2368
419.702	1882.246
419.916	2355.47852
420.13	1746.74432
420.345	1673.00511
420.559	1692.8574
420.773	1792.44377
420.988	1860.10509
421.202	2253.9422
421.416	1753.40214
421.63	1878.55648
421.845	1966.74067
422.059	1847.99748
422.273	1560.10661
422.487	1844.74863
422.701	2369.239
422.916	2352.40399
423.13	1846.07773
423.344	1591.13963
423.558	1586.68639
423.772	1504.52203
423.986	1758.87569
424.201	1720.84442
424.415	2224.16869
424.629	1932.84057
424.843	1832.04663
425.057	2026.82579
425.271	1403.73101
425.485	1390.46368
425.699	1415.20623
425.913	2099.34437
426.127	1871.17669
426.341	1681.45072
426.555	1769.96891
426.769	2133.14586
426.983	2275.34699
427.197	1963.94102
427.411	1778.1024
427.625	2160.32014
427.839	1748.37187
428.053	1703.81716
428.267	1642.76671
428.481	2015.63832
428.695	1666.1883
428.908	1429.06192
429.122	2018.28818
429.336	1916.47257
429.55	1832.04663
429.764	2163.25717
429.978	2879.59657
430.191	3028.05812
430.405	4164.5832
430.619	4344.47781
430.833	5583.21977
431.047	7008.39383
431.26	9204.11558
431.474	10775.50665
431.688	12040.52301
431.901	12437.7966
432.115	14799.06944
432.329	16085.65467
432.543	17579.57244
432.756	20215.43978
432.97	20953.35614
433.184	15077.15585
433.397	7375.23057
433.611	3006.42867
433.824	2593.11989
434.038	1986.33431
434.252	1970.12954
434.465	1819.93254
434.679	1733.13004
434.892	1980.2949
435.106	1333.7708
435.319	1514.48464
435.533	2149.89254
435.747	2034.0376
435.96	1580.00574
436.174	2118.74584
436.387	2002.53439
436.601	1954.36218
436.814	2204.3607
437.027	1536.48393
437.241	2128.73806
437.454	1472.83531
437.668	2082.43636
437.881	2071.25969
438.095	1851.54146
438.308	2027.8561
438.521	2362.65189
438.735	1929.7443
438.948	1971.6029
439.161	1862.91011
439.375	1869.25778
439.588	2101.8434
439.801	2101.5494
440.015	1956.57283
440.228	2188.95011
440.441	2506.98326
440.654	2874.65325
440.868	2629.58819
441.081	1698.63379
441.294	2237.07716
441.507	2118.74584
441.721	1805.74661
441.934	2087.58279
442.147	1850.80315
442.36	1938.14805
442.573	2084.49499
442.786	1748.81574
443	2329.12069
443.213	1996.34945
443.426	2101.1084
443.639	2528.30793
443.852	2147.83618
444.065	2443.848
444.278	2235.46375
444.491	2404.65191
444.704	2084.05386
444.917	2268.60379
445.13	2130.20736
445.343	2030.79976
445.556	2875.38023
445.769	2996.41063
445.982	2291.76224
446.195	2506.39893
446.408	2318.28163
446.621	2616.6075
446.834	2121.391
447.047	2143.87015
447.26	2048.16423
447.473	2248.07661
447.686	2275.78674
447.899	2261.71327
448.111	2503.47722
448.324	2403.48154
448.537	2245.58357
448.75	2132.26432
448.963	2183.37199
449.176	2527.28566
449.388	2380.36242
449.601	2204.80095
449.814	2199.37103
450.027	2262.59295
450.239	2167.80928
450.452	2172.0674
450.665	1863.50063
450.878	2055.66759
451.09	2300.11482
451.303	2263.03279
451.516	2085.08315
451.728	2393.67883
451.941	1738.16184
452.154	2487.55181
452.366	2413.57538
452.579	1906.00037
452.792	2418.54862
453.004	2302.31269
453.217	2069.05352
453.429	2187.33544
453.642	1999.73653
453.854	2375.09366
454.067	2639.06707
454.28	2784.75093
454.492	1809.29346
454.705	2028.73922
454.917	1966.88802
455.13	2640.67107
455.342	2372.31276
455.555	1908.65549
455.767	2792.61034
455.979	2245.43692
456.192	2516.77003
456.404	1938.88516
456.617	2290.58986
456.829	2126.97484
457.041	2532.5429
457.254	2454.81307
457.466	2118.01105
457.679	2181.16996
457.891	2636.00479
458.103	2409.77208
458.315	2341.27589
458.528	1995.31857
458.74	2200.98538
458.952	2194.96804
459.165	2197.02281
459.377	1891.39489
459.589	1629.86517
459.801	2216.83313
460.014	2231.79675
460.226	2105.07728
460.438	2061.5519
460.65	1787.5652
460.862	2215.65936
461.075	2121.0971
461.287	1767.45466
461.499	1492.02851
461.711	1598.11552
461.923	1928.41727
462.135	2192.9132
462.347	2013.57723
462.559	2189.53725
462.771	2275.05382
462.983	1874.71912
463.196	2241.47718
463.408	2454.95925
463.62	2392.06929
463.832	2512.24199
464.044	2381.09416
464.256	2515.74759
464.468	2010.77991
464.68	2228.71629
464.891	2393.67883
465.103	2020.3491
465.315	2638.77543
465.527	1848.73583
465.739	1647.06646
465.951	1936.52637
466.163	1953.03575
466.375	1704.11334
466.587	2343.76523
466.799	1846.37308
467.01	1853.75632
467.222	1985.74513
467.434	1777.21518
467.646	1826.43313
467.858	2118.30496
468.069	1945.66611
468.281	1624.67392
468.493	1396.27795
468.705	1614.58644
468.916	1735.20202
469.128	1451.10288
469.34	1559.36394
469.551	1631.94152
469.763	1179.86663
469.975	1623.6356
470.186	1744.96876
470.398	1512.84914
470.61	1566.19605
470.821	1369.28719
471.033	1637.13198
471.245	2125.94628
471.456	1410.43767
471.668	1772.48304
471.879	1528.45838
472.091	2017.69933
472.302	2183.66559
472.514	2172.6547
472.725	1818.45502
472.937	1580.89655
473.148	1491.58225
473.36	1720.54834
473.571	2017.99376
473.783	1719.80815
473.994	1811.95344
474.206	1682.63596
474.417	1641.43223
474.629	1997.38032
474.84	2130.06043
475.051	2116.39448
475.263	1602.12249
475.474	1732.53803
475.685	1953.18313
475.897	1720.25227
476.108	2229.30306
476.319	1551.78805
476.531	1726.46954
476.742	2109.0459
476.953	2208.90976
477.165	2605.37521
477.376	1878.11372
477.587	1970.57155
477.798	1991.19482
478.01	1659.66697
478.221	1997.52759
478.432	1993.69856
478.643	1955.54121
478.854	1717.29139
479.065	2601.29033
479.277	2357.96733
479.488	2239.57054
479.699	2358.26013
479.91	2125.35852
480.121	2374.2155
480.332	2256.14166
480.543	2369.97086
480.754	1823.7739
480.965	2139.02242
481.176	2270.50955
481.387	2827.38652
481.598	2323.40844
481.809	3029.79987
482.02	4299.48306
482.231	8851.03296
482.442	17066.12905
482.653	30706.7191
482.864	45787.16478
483.075	62777.40311
483.286	62777.40311
483.497	62777.40311
483.708	62777.40311
483.919	62777.40311
484.13	62777.40311
484.341	62777.40311
484.551	62777.40311
484.762	62777.40311
484.973	62777.40311
485.184	62777.40311
485.395	62777.40311
485.605	62777.40311
485.816	62777.40311
486.027	62777.40311
486.238	62777.40311
486.449	34885.75908
486.659	4932.39705
486.87	4309.83414
487.081	3918.40253
487.291	3694.06333
487.502	3117.28172
487.713	2936.13397
487.923	3036.47627
488.134	2691.25284
488.345	3586.38098
488.555	3153.23814
488.766	2564.66223
488.976	3157.15197
489.187	3005.12203
489.398	3070.43156
489.608	3014.70362
489.819	2485.06771
490.029	2371.28819
490.24	3243.21814
490.45	3067.38479
490.661	2845.56914
490.871	2509.61267
491.082	2175.88476
491.292	2359.57769
491.503	2724.17897
491.713	2744.56884
491.924	2682.94628
492.134	2525.53316
492.344	2643.73316
492.555	2680.32298
492.765	2842.22383
492.975	2755.63546
493.186	2781.25762
493.396	2801.63317
493.607	2230.62326
493.817	2867.52856
494.027	2465.19173
494.237	2313.8869
494.448	2365.28681
494.658	2697.3729
494.868	2101.6964
495.078	2590.6394
495.289	3027.04208
495.499	2563.34853
495.709	2297.62382
495.919	2465.92257
496.129	2534.58728
496.34	2054.34354
496.55	1916.62005
496.76	2558.96938
496.97	2715.43885
497.18	2348.4508
497.39	2336.44337
497.6	2775.58068
497.81	2938.31335
498.021	2888.61012
498.231	3036.62141
498.441	2561.45093
498.651	2369.97086
498.861	1975.28611
499.071	2415.33068
499.281	2681.92612
499.491	2349.47572
499.701	2393.67883
499.911	2491.35086
500.121	2537.21569
500.331	2672.59828
500.54	3213.95791
500.75	2672.16101
500.96	2522.75828
501.17	2289.41746
501.38	2489.88971
501.59	2688.33836
501.8	2285.60702
502.01	1955.68858
502.219	2505.66852
502.429	2788.09855
502.639	2939.03979
502.849	2796.10316
503.059	2311.10342
503.268	2425.42278
503.478	2214.19212
503.688	2631.19239
503.898	2416.06204
504.107	2456.12876
504.317	2953.85804
504.527	2694.31293
504.736	2695.62436
504.946	2374.2155
505.156	2709.3202
505.365	2295.13271
505.575	2338.05425
505.785	2349.76855
505.994	2703.20108
506.204	2302.75226
506.413	2285.02077
506.623	1930.18663
506.832	2319.89295
507.042	2484.77546
507.251	2640.67107
507.461	2489.01301
507.67	2402.16484
507.88	2206.85539
508.089	2332.19632
508.299	2395.58096
508.508	2386.50878
508.718	1947.8771
508.927	2152.0957
509.137	2711.65117
509.346	2522.61223
509.555	2220.35431
509.765	2160.61385
509.974	3463.86567
510.184	2596.038
510.393	2214.77902
510.602	2287.80538
510.812	2761.1682
511.021	2374.36186
511.23	2960.39472
511.439	2145.48597
511.649	2200.69186
511.858	2387.53312
512.067	2451.45063
512.276	2508.73621
512.486	3289.40962
512.695	2294.10694
512.904	1940.8016
513.113	2228.42291
513.322	2355.03931
513.531	2408.60179
513.741	2675.6591
513.95	1900.68974
514.159	2454.3745
514.368	2017.99376
514.577	2187.04186
514.786	2080.81882
514.995	2200.69186
515.204	2321.21128
515.413	1930.77641
515.622	1991.63667
515.831	2178.67423
516.04	2153.71131
516.249	1912.49042
516.458	2043.0143
516.667	2210.37713
516.876	2521.44383
517.085	2192.47287
517.294	2457.88297
517.503	2167.95611
517.712	2169.71813
517.921	2339.22578
518.13	2386.06977
518.339	2472.49973
518.547	2934.39043
518.756	2076.55417
518.965	2257.31467
519.174	2213.31176
519.383	2238.69054
519.591	1953.62528
519.8	1725.72943
520.009	2237.37051
520.218	1991.19482
520.426	2142.10738
520.635	2383.28933
520.844	2188.06939
521.053	2370.11723
521.261	2513.70267
521.47	2232.82353
521.679	2426.73903
521.887	2225.92909
522.096	2163.25717
522.304	1881.06538
522.513	1751.9227
522.722	1833.22834
522.93	2487.55181
523.139	2196.28897
523.347	2019.61307
523.556	1822.29649
523.764	1996.49672
523.973	1986.77619
524.182	1928.56472
524.39	2287.0726
524.598	1974.54949
524.807	1755.62122
525.015	2166.63457
525.224	2246.17018
525.432	2078.46595
525.641	1820.52354
525.849	1983.09373
526.057	2123.44827
526.266	2468.55351
526.474	1836.0348
526.683	2002.97614
526.891	2246.61013
527.099	2018.72981
527.308	2095.22808
527.516	1734.61004
527.724	2233.70361
527.932	1863.05774
528.141	2344.49738
528.349	2627.25475
528.557	2141.51978
528.765	1968.80349
528.974	1781.94687
529.182	2009.45482
529.39	2076.70123
529.598	1849.17884
529.806	1763.6091
530.015	2149.74566
530.223	1914.70277
530.431	1826.7286
530.639	1689.15422
530.847	1897.4441
531.055	2103.90134
531.263	2167.22193
531.471	1647.21472
531.679	1641.28395
531.887	2095.96316
532.095	2232.2368
532.303	2367.77526
532.511	2099.63838
532.719	2043.0143
532.927	2088.90609
533.135	2231.79675
533.343	2532.98099
533.551	2217.12657
533.759	2114.48394
533.967	2513.26447
534.175	2251.00948
534.383	2677.69958
534.591	2560.5751
534.798	2429.95643
535.006	1985.74513
535.214	2111.10359
535.422	1937.8532
535.63	2250.7162
535.837	1776.47581
536.045	1878.99924
536.253	2067.28852
536.461	2118.15801
536.668	2133.29278
536.876	2422.05891
537.084	2669.97463
537.292	2414.74559
537.499	2637.17139
537.707	2334.686
537.915	2530.06036
538.122	2706.84347
538.33	2621.27497
538.538	2294.98617
538.745	2508.00582
538.953	2608.73049
539.16	2399.38505
539.368	2222.11482
539.575	2048.60563
539.783	2199.22427
539.99	2887.15639
540.198	2257.60792
540.406	2252.76913
540.613	2154.59253
540.82	2081.55407
541.028	2371.87366
541.235	2450.28105
541.443	2753.8882
541.65	3082.47263
541.858	2579.25727
542.065	2202.01267
542.272	2061.8461
542.48	2873.78087
542.687	2102.57839
542.895	2677.69958
543.102	2308.17331
543.309	2440.1926
543.516	2482.29126
543.724	2426.88528
543.931	2193.50031
544.138	2579.69507
544.346	2291.3226
544.553	2427.61652
544.76	2297.33075
544.967	2158.85157
545.174	2405.38339
545.382	2314.61937
545.589	2376.11817
545.796	2615.44059
546.003	1972.19223
546.21	2446.18736
546.417	2913.46525
546.624	2575.75472
546.832	2470.16126
547.039	2539.40595
547.246	2820.83981
547.453	2512.97233
547.66	2171.18643
547.867	2544.51631
548.074	2435.22093
548.281	2246.90343
548.488	2212.28466
548.695	2111.10359
548.902	2356.50334
549.109	2198.19693
549.316	1879.44199
549.523	1979.70565
549.73	2201.13214
549.936	2292.20188
550.143	2000.76733
550.35	1988.24911
550.557	1932.10338
550.764	1914.2603
550.971	2438.73038
551.178	2224.31539
551.384	2541.15811
551.591	2504.64592
551.798	2558.96938
552.005	2193.64708
552.211	2502.89287
552.418	2238.10386
552.625	1849.91717
552.832	2499.82492
553.038	2432.00378
553.245	2496.90295
553.452	2493.39641
553.658	2119.48061
553.865	2122.86048
554.072	2278.71832
554.278	2338.64002
554.485	3060.71056
554.691	2794.0657
554.898	2223.87528
555.105	2672.45253
