Data from deut_74ms_54_SR4014911__0__16-28-59-807.txt Node

Date: Sun Jul 13 16:28:59 EDT 2025
User: cryst
Spectrometer: SR401491
Trigger mode: 0
Integration Time (sec): 7.400000E-2
Scans to average: 54
Electric dark correction enabled: true
Nonlinearity correction enabled: true
Boxcar width: 0
XAxis mode: Wavelengths
Number of Pixels in Spectrum: 3648
>>>>>Begin Spectral Data<<<<<
344.912	-125.73368
345.129	-113.68673
345.347	-135.17276
345.565	-123.08084
345.783	43.60211
346.001	38.69223
346.219	27.8833
346.437	42.29424
346.654	77.48394
346.872	29.29253
347.09	5.06345
347.308	76.59973
347.526	38.89347
347.743	21.94357
347.961	94.17797
348.179	55.22929
348.397	67.19319
348.614	104.96037
348.832	115.69837
349.05	111.76494
349.268	116.90237
349.485	138.6255
349.703	72.15816
349.921	150.99381
350.138	136.07898
350.356	122.21941
350.574	99.57974
350.791	106.00425
351.009	118.60795
351.227	120.41374
351.444	104.83992
351.662	117.70501
351.879	93.7964
352.097	114.47425
352.314	121.11596
352.532	107.97145
352.75	121.99872
352.967	130.10277
353.185	131.64708
353.402	100.16203
353.62	85.60121
353.837	142.53505
354.055	119.93221
354.272	167.02232
354.49	168.92509
354.707	171.84909
354.925	99.03761
355.142	135.0563
355.359	141.29207
355.577	157.18592
355.794	146.0231
356.012	172.97055
356.229	156.80521
356.446	121.35671
356.664	145.24133
356.881	173.45116
357.099	105.9641
357.316	128.67872
357.533	141.25197
357.751	114.87561
357.968	237.13932
358.185	159.59025
358.402	128.65866
358.62	180.37903
358.837	175.59378
359.054	104.45849
359.272	114.33378
359.489	114.93581
359.706	134.13385
359.923	144.45954
360.141	141.13168
360.358	147.72687
360.575	148.94951
360.792	137.18183
361.009	118.02606
361.226	128.01681
361.444	195.85043
361.661	148.58874
361.878	137.88362
362.095	128.39791
362.312	159.49007
362.529	145.90283
362.746	152.19627
362.963	117.46422
363.181	119.81182
363.398	134.85577
363.615	194.40973
363.832	104.05698
364.049	100.32266
364.266	194.80993
364.483	141.25197
364.7	134.49481
364.917	87.69042
365.134	152.93776
365.351	134.95604
365.568	159.59025
365.785	133.17126
366.002	88.85548
366.219	114.59466
366.436	168.00376
366.652	173.21085
366.869	142.39471
367.086	176.57492
367.303	112.18641
367.52	112.82863
367.737	182.70129
367.954	172.28967
368.171	125.16841
368.387	206.57334
368.604	140.00894
368.821	150.59298
369.038	123.98483
369.255	159.89077
369.471	109.05536
369.688	183.40193
369.905	179.05766
370.122	142.59519
370.339	151.01385
370.555	109.43672
370.772	116.17998
370.989	227.54727
371.205	124.42617
371.422	136.98132
371.639	117.74514
371.855	196.19059
372.072	132.81028
372.289	125.62979
372.505	194.00952
372.722	110.13922
372.939	148.62883
373.155	181.42007
373.372	127.23453
373.589	144.35931
373.805	116.24018
374.022	123.34287
374.238	114.43412
374.455	151.69525
374.671	151.01385
374.888	144.66
375.104	78.7901
375.321	93.3144
375.537	128.29762
375.754	147.82709
375.97	143.05628
376.187	191.54812
376.403	117.48429
376.62	129.94232
376.836	118.52769
377.053	133.75283
377.269	131.72731
377.486	110.25965
377.702	89.92006
377.918	100.7443
378.135	132.00808
378.351	158.66861
378.568	147.60661
378.784	137.04147
379	142.57514
379.217	127.6357
379.433	116.98264
379.649	174.21211
379.865	119.69144
380.082	175.93418
380.298	98.2545
380.514	197.07097
380.731	150.59298
380.947	107.63021
381.163	147.26586
381.379	128.99964
381.596	125.06811
381.812	181.05971
382.028	155.86345
382.244	122.94164
382.46	104.90014
382.676	198.01135
382.893	159.28972
383.109	137.02142
383.325	130.0426
383.541	169.62608
383.757	85.38023
383.973	153.59907
384.189	184.52292
384.405	144.90055
384.622	120.75482
384.838	139.76835
385.054	165.72034
385.27	185.34362
385.486	127.77611
385.702	110.96213
385.918	149.29024
386.134	142.41476
386.35	161.53359
386.566	186.40449
386.782	168.32423
386.998	172.65014
387.214	149.9316
387.43	159.1094
387.646	197.99134
387.861	159.87074
388.077	150.61302
388.293	163.87745
388.509	173.23088
388.725	162.65546
388.941	168.32423
389.157	131.0053
389.373	143.25675
389.588	166.22111
389.804	173.47118
390.02	204.81315
390.236	107.08823
390.452	133.65256
390.668	134.1539
390.883	192.5287
391.099	154.86154
391.315	161.13292
391.531	147.06542
391.746	134.31433
391.962	156.80521
392.178	154.08002
392.393	142.71547
392.609	209.83342
392.825	145.06092
393.041	120.95545
393.256	163.07615
393.472	180.81947
393.687	164.5986
393.903	196.01051
394.119	157.38629
394.334	169.12537
394.55	202.8528
394.766	167.88359
394.981	192.38862
395.197	199.81198
395.412	216.31245
395.628	185.804
395.843	209.23343
396.059	282.75747
396.274	187.9857
396.49	250.8224
396.705	191.54812
396.921	134.21406
397.136	190.54749
397.352	160.91254
397.567	157.60669
397.783	163.09619
397.998	171.58875
398.214	151.29443
398.429	120.45386
398.644	221.89044
398.86	158.96915
399.075	184.90325
399.29	149.61092
399.506	127.57553
399.721	162.39503
399.936	168.68474
400.152	139.3473
400.367	161.61373
400.582	168.7248
400.798	202.05261
401.013	135.99877
401.228	175.91415
401.444	177.69619
401.659	161.43342
401.874	220.21116
402.089	173.91173
402.304	193.02899
402.52	160.81237
402.735	127.79617
402.95	124.64684
403.165	179.67831
403.38	219.53142
403.596	156.16402
403.811	199.03172
404.026	235.32108
404.241	153.01792
404.456	161.03274
404.671	222.21029
404.886	181.7604
405.101	159.06933
405.316	178.13667
405.532	213.25309
405.747	173.61136
405.962	199.99204
406.177	187.36524
406.392	154.60103
406.607	205.45323
406.822	199.23179
407.037	215.85257
407.252	263.97995
407.467	255.25551
407.682	239.63672
407.896	271.56427
408.111	270.24714
408.326	292.41088
408.541	368.0717
408.756	376.66316
408.971	396.50158
409.186	393.04372
409.401	360.81079
409.616	211.45332
409.83	166.98226
410.045	156.40447
410.26	141.41236
410.475	141.97371
410.69	179.49813
410.905	184.92327
411.119	114.17323
411.334	154.10006
411.549	145.50192
411.764	194.97001
411.978	203.41291
412.193	176.31462
412.408	131.46658
412.623	119.16976
412.837	214.75282
413.052	176.51485
413.267	190.94774
413.481	154.98177
413.696	137.62296
413.911	150.93369
414.125	147.36608
414.34	125.44925
414.554	160.13119
414.769	192.76884
414.984	157.36625
415.198	100.26242
415.413	122.29966
415.627	182.84142
415.842	135.51751
416.056	176.97538
416.271	131.28608
416.485	188.64618
416.7	170.08671
416.914	157.34621
417.129	145.06092
417.343	163.01606
417.558	159.1094
417.772	184.60299
417.987	164.83898
418.201	142.33457
418.415	115.97931
418.63	152.05599
418.844	159.26968
419.059	173.21085
419.273	170.68754
419.487	214.01297
419.702	163.49684
419.916	240.05627
420.13	153.93974
420.345	146.72466
420.559	157.10577
420.773	152.17623
420.988	175.89413
421.202	200.37216
421.416	156.00371
421.63	156.02375
421.845	174.27218
422.059	160.53189
422.273	109.05536
422.487	172.3097
422.701	207.89342
422.916	227.16752
423.13	156.36439
423.344	136.50008
423.558	152.37664
423.772	134.43465
423.986	144.1388
424.201	154.56096
424.415	212.37322
424.629	183.66216
424.843	163.61703
425.057	193.72937
425.271	127.8764
425.485	128.37785
425.699	124.62678
425.913	208.07342
426.127	178.53711
426.341	152.25639
426.555	166.40138
426.769	188.9464
426.983	207.31339
427.197	182.48108
427.411	167.92364
427.625	230.98479
427.839	163.07615
428.053	161.8942
428.267	134.89588
428.481	190.70759
428.695	127.37494
428.908	119.93221
429.122	173.0106
429.336	185.70392
429.55	150.3124
429.764	186.14428
429.978	258.07078
430.191	252.40003
430.405	343.63613
430.619	334.09919
430.833	443.60034
431.047	592.60393
431.26	800.53151
431.474	945.8624
431.688	1073.87106
431.901	1137.16018
432.115	1372.43192
432.329	1557.04362
432.543	1704.42725
432.756	2078.81308
432.97	2136.92615
433.184	1453.67931
433.397	635.48507
433.611	239.4769
433.824	216.83231
434.038	189.04647
434.252	168.00376
434.465	150.27231
434.679	150.33244
434.892	182.14076
435.106	99.15808
435.319	142.19423
435.533	192.76884
435.747	201.47247
435.96	119.95227
436.174	214.73283
436.387	194.52979
436.601	193.68935
436.814	202.71277
437.027	141.63289
437.241	192.48868
437.454	134.23412
437.668	189.46676
437.881	222.15032
438.095	146.84493
438.308	177.7963
438.521	230.92484
438.735	173.11073
438.948	175.1933
439.161	177.55603
439.375	175.6138
439.588	196.93091
439.801	193.44922
440.015	181.27993
440.228	209.05344
440.441	229.60584
440.654	262.80221
440.868	244.99041
441.081	139.28715
441.294	226.32805
441.507	197.69122
441.721	165.94068
441.934	193.20909
442.147	166.86208
442.36	176.67504
442.573	198.67159
442.786	140.08914
443	215.2927
443.213	164.89907
443.426	176.5549
443.639	220.99084
443.852	193.94949
444.065	227.32741
444.278	203.99302
444.491	192.54872
444.704	193.80942
444.917	201.65251
445.13	205.2532
445.343	159.67039
445.556	259.16886
445.769	276.77234
445.982	223.46967
446.195	232.12388
446.408	201.63251
446.621	235.10128
446.834	188.24589
447.047	178.45702
447.26	176.93533
447.473	198.51154
447.686	205.57324
447.899	195.25015
448.111	232.9432
448.324	190.42741
448.537	201.93258
448.75	191.02779
448.963	175.1132
449.176	220.95085
449.388	223.24978
449.601	199.15176
449.814	182.30091
450.027	182.68127
450.239	223.38971
450.452	188.46606
450.665	166.70184
450.878	182.1808
451.09	193.66934
451.303	198.01135
451.516	180.65931
451.728	197.35109
451.941	129.86209
452.154	233.28291
452.366	231.1047
452.579	184.54294
452.792	235.94049
453.004	205.13319
453.217	179.57821
453.429	200.8523
453.642	190.96776
453.854	228.52661
454.067	249.54426
454.28	268.23141
454.492	142.61524
454.705	184.02248
454.917	174.95301
455.13	238.3381
455.342	238.03841
455.555	152.15619
455.767	271.58422
455.979	206.0933
456.192	228.98628
456.404	167.92364
456.617	207.01338
456.829	183.08164
457.041	235.36104
457.254	221.3107
457.466	173.61136
457.679	182.32093
457.891	241.51462
458.103	208.69344
458.315	197.03095
458.528	166.92217
458.74	184.98332
458.952	198.01135
459.165	199.79198
459.377	166.18105
459.589	147.4663
459.801	192.66879
460.014	213.09312
460.226	190.20726
460.438	201.51248
460.65	140.42997
460.862	212.25323
461.075	176.85524
461.287	169.94652
461.499	130.84485
461.711	133.21137
461.923	173.45116
462.135	187.28517
462.347	165.90062
462.559	192.30858
462.771	192.36861
462.983	161.91423
463.196	204.69313
463.408	218.53178
463.62	200.39216
463.832	233.16301
464.044	214.31291
464.256	222.69006
464.468	173.95178
464.68	206.75336
464.891	192.98897
465.103	169.40577
465.315	237.37908
465.527	158.88901
465.739	146.36386
465.951	159.95088
466.163	173.0106
466.375	155.82337
466.587	238.07837
466.799	167.16252
467.01	156.70503
467.222	176.2145
467.434	147.22577
467.646	157.56662
467.858	196.63078
468.069	192.32859
468.281	125.83039
468.493	130.88497
468.705	145.18119
468.916	161.43342
469.128	107.30904
469.34	146.74471
469.551	158.68865
469.763	111.5241
469.975	145.44179
470.186	167.94367
470.398	130.54401
470.61	155.22223
470.821	108.19225
471.033	137.64301
471.245	196.39068
471.456	129.94232
471.668	159.49007
471.879	144.53973
472.091	188.24589
472.302	211.19334
472.514	190.12721
472.725	164.49844
472.937	148.92947
473.148	139.0666
473.36	153.93974
473.571	176.93533
473.783	143.93834
473.994	162.41507
474.206	139.7884
474.417	150.63307
474.629	179.53817
474.84	187.16508
475.051	199.91202
475.263	130.22311
475.474	157.62673
475.685	163.25645
475.897	133.29158
476.108	216.01253
476.319	130.0426
476.531	159.63032
476.742	193.44922
476.953	195.53028
477.165	244.57094
477.376	167.6232
477.587	173.49121
477.798	174.15203
478.01	135.95867
478.221	189.30665
478.432	172.9305
478.643	160.43171
478.854	141.21188
479.065	266.1357
479.277	217.95198
479.488	193.38919
479.699	210.39339
479.91	194.24965
480.121	216.11251
480.332	195.85043
480.543	210.61338
480.754	147.06542
480.965	167.04235
481.176	198.05136
481.387	256.73306
481.598	186.78479
481.809	239.51685
482.02	339.37575
482.231	752.00618
482.442	1680.86761
482.653	3405.2383
482.864	5471.38293
483.075	8359.50274
483.286	11700.36192
483.497	15733.74362
483.708	18785.49148
483.919	21473.0572
484.13	23805.17702
484.341	27176.76074
484.551	31904.31939
484.762	36188.10361
484.973	37624.3754
485.184	25761.69528
485.395	8536.88624
485.605	2500.63241
485.816	1074.26061
486.027	527.53155
486.238	375.9473
486.449	410.20987
486.659	318.30368
486.87	281.97948
487.081	275.71484
487.291	272.34255
487.502	231.86409
487.713	223.08986
487.923	246.24879
488.134	199.19178
488.345	287.66436
488.555	255.09577
488.766	202.69276
488.976	254.31703
489.187	242.83308
489.398	222.86997
489.608	239.49687
489.819	194.40973
490.029	185.24354
490.24	258.19057
490.45	252.71954
490.661	237.1593
490.871	218.75171
491.082	173.1708
491.292	191.62817
491.503	232.56352
491.713	240.15616
491.924	209.39343
492.134	215.53265
492.344	190.76763
492.555	221.57058
492.765	232.18383
492.975	229.00627
493.186	242.19384
493.396	258.66974
493.607	157.58665
493.817	254.0175
494.027	197.61119
494.237	202.19265
494.448	196.75084
494.658	233.16301
494.868	171.34843
495.078	228.06692
495.289	264.01987
495.499	214.77282
495.709	157.26607
495.919	189.90706
496.129	208.19343
496.34	170.92786
496.55	160.45175
496.76	227.28744
496.97	230.14544
497.18	199.05173
497.39	166.62172
497.6	222.27026
497.81	228.86637
498.021	239.97635
498.231	228.34673
498.441	214.47288
498.651	203.97301
498.861	137.76332
499.071	212.05326
499.281	251.08201
499.491	213.61304
499.701	215.97254
499.911	213.15311
500.121	205.2132
500.331	230.34528
500.54	278.52811
500.75	226.76777
500.96	214.71283
501.17	186.10424
501.38	208.21343
501.59	230.22538
501.8	186.98494
502.01	148.30813
502.219	205.27321
502.429	244.3712
502.639	275.13619
502.849	228.28677
503.059	184.06252
503.268	208.45343
503.478	206.99337
503.688	224.24925
503.898	201.13238
504.107	198.51154
504.317	281.5805
504.527	222.65008
504.736	234.34197
504.946	189.9671
505.156	239.67668
505.365	198.57156
505.575	197.91131
505.785	200.55221
505.994	234.28203
506.204	191.52811
506.413	199.45187
506.623	150.77336
506.832	203.45292
507.042	199.31182
507.251	242.25376
507.461	216.63237
507.67	205.15319
507.88	183.50202
508.089	210.3534
508.299	212.09325
508.508	219.87129
508.718	154.50084
508.927	179.55819
509.137	242.3936
509.346	221.63055
509.555	177.25569
509.765	182.40101
509.974	355.89623
510.184	238.23821
510.393	190.92773
510.602	190.18725
510.812	232.20381
511.021	205.95329
511.23	267.55281
511.439	180.39905
511.649	165.8205
511.858	213.813
512.067	218.4918
512.276	229.94558
512.486	395.4285
512.695	224.709
512.904	167.84353
513.113	206.1133
513.322	196.39068
513.531	217.15222
513.741	240.01631
513.95	154.70123
514.159	213.97297
514.368	160.21133
514.577	185.9241
514.786	177.69619
514.995	173.03062
515.204	196.33065
515.413	178.77736
515.622	189.88705
515.831	175.15325
516.04	190.68758
516.249	145.48188
516.458	177.31576
516.667	203.57294
516.876	241.2749
517.085	175.45361
517.294	211.07335
517.503	182.1808
517.712	182.58118
517.921	211.25333
518.13	232.64345
518.339	230.42522
518.547	289.25992
518.756	174.23213
518.965	204.45309
519.174	189.44675
519.383	207.59341
519.591	152.37664
519.8	153.85959
520.009	201.95259
520.218	179.7584
520.426	179.31794
520.635	214.23293
520.844	211.69329
521.053	219.43146
521.261	234.68167
521.47	233.90237
521.679	203.39291
521.887	205.49323
522.096	181.64028
522.304	159.63032
522.513	145.00078
522.722	186.20433
522.93	234.40192
523.139	186.30441
523.347	161.8942
523.556	165.62019
523.764	179.29792
523.973	182.64123
524.182	153.4588
524.39	226.62786
524.598	171.10811
524.807	151.97583
525.015	187.88563
525.224	201.77254
525.432	190.92773
525.641	129.5813
525.849	182.64123
526.057	189.84702
526.266	235.401
526.474	154.78138
526.683	159.91081
526.891	224.10933
527.099	165.94068
527.308	187.10504
527.516	145.96296
527.724	206.95337
527.932	157.24603
528.141	223.52963
528.349	253.73795
528.557	198.91168
528.765	167.64323
528.974	145.5821
529.182	159.99095
529.39	197.73124
529.598	160.17126
529.806	154.0199
530.015	208.03342
530.223	181.38003
530.431	160.8324
530.639	127.47523
530.847	155.32242
531.055	186.82482
531.263	185.52377
531.471	141.19183
531.679	127.29471
531.887	182.24086
532.095	205.69326
532.303	212.91315
532.511	166.50153
532.719	175.67387
532.927	165.43991
533.135	198.45151
533.343	237.8586
533.551	208.27343
533.759	172.50996
533.967	232.14386
534.175	186.78479
534.383	223.76951
534.591	222.13032
534.798	231.32453
535.006	142.59519
535.214	179.23785
535.422	151.0339
535.63	220.21116
535.837	134.17396
536.045	162.39503
536.253	191.8483
536.461	181.40005
536.668	181.92055
536.876	219.23154
537.084	236.59986
537.292	204.75314
537.499	228.94631
537.707	200.23212
537.915	217.27219
538.122	233.44277
538.33	242.43355
538.538	199.83199
538.745	206.1133
538.953	222.23028
539.16	201.19239
539.368	169.6461
539.575	175.81404
539.783	175.07316
539.99	236.2402
540.198	194.62984
540.406	211.49331
540.613	198.05136
540.82	156.5848
541.028	207.73341
541.235	188.18585
541.443	240.73551
541.65	273.89904
541.858	230.50516
542.065	192.5287
542.272	189.02646
542.48	286.64715
542.687	177.03545
542.895	232.18383
543.102	180.75941
543.309	216.45242
543.516	213.47306
543.724	207.3934
543.931	193.52927
544.138	223.4097
544.346	182.12074
544.553	214.53287
544.76	214.8528
544.967	188.54611
545.174	213.15311
545.382	188.88636
545.589	227.58724
545.796	241.55458
546.003	147.2859
546.21	201.33243
546.417	285.01155
546.624	202.75277
546.832	200.69225
547.039	214.41289
547.246	252.10048
547.453	199.71195
547.66	170.78767
547.867	199.45187
548.074	201.57249
548.281	175.31344
548.488	191.46807
548.695	199.872
548.902	191.40803
549.109	181.38003
549.316	153.77943
549.523	174.63262
549.73	178.0766
549.936	198.79164
550.143	192.66879
550.35	157.52654
550.557	164.01768
550.764	158.28793
550.971	211.49331
551.178	164.73882
551.384	235.32108
551.591	234.32199
551.798	224.38918
552.005	181.88051
552.211	217.19221
552.418	186.66469
552.625	151.61509
552.832	206.43333
553.038	217.09224
553.245	215.87257
553.452	236.77968
553.658	175.59378
553.865	186.90488
554.072	201.75254
554.278	192.92893
554.485	267.05384
554.691	257.03256
554.898	203.03283
555.105	227.54727
555.311	194.36971
555.518	230.78495
555.724	217.71205
555.931	153.2584
556.137	162.71556
556.344	206.95337
556.55	202.59274
556.757	203.61295
556.963	190.28732
557.17	200.91232
557.376	200.43218
557.582	268.19149
557.789	187.24514
557.995	179.59823
558.202	178.67726
558.408	214.77282
558.614	154.03994
558.821	204.45309
559.027	221.25072
559.233	222.11033
559.439	273.22058
559.646	209.09343
559.852	237.91853
560.058	232.7034
560.264	221.71052
560.471	209.75342
560.677	250.58275
560.883	239.77657
561.089	237.79866
561.295	184.24268
561.502	211.13334
561.708	205.49323
561.914	231.82412
562.12	220.611
562.326	220.81091
562.532	230.14544
562.738	229.88563
562.944	187.72551
563.15	226.34803
563.356	188.02573
563.562	204.33307
563.768	214.17294
563.974	183.36189
564.18	212.5332
564.386	202.45271
564.592	192.48868
564.798	178.77736
565.004	258.80949
565.21	162.2548
565.416	239.71664
565.622	225.12876
565.828	221.05081
566.034	254.47677
