Data from deut_40ms_100_SR4014911__0__16-17-57-025.txt Node

Date: Sun Jul 13 16:17:57 EDT 2025
User: cryst
Spectrometer: SR401491
Trigger mode: 0
Integration Time (sec): 4.000000E-2
Scans to average: 100
Electric dark correction enabled: true
Nonlinearity correction enabled: true
Boxcar width: 0
XAxis mode: Wavelengths
Number of Pixels in Spectrum: 3648
>>>>>Begin Spectral Data<<<<<
344.912	-66.74299
345.129	-51.17797
345.347	-71.14042
345.565	-56.33619
345.783	19.0492
346.001	11.65308
346.219	2.11121
346.437	18.47281
346.654	41.05136
346.872	30.13952
347.09	-3.99435
347.308	46.28834
347.526	17.39612
347.743	10.09745
347.961	52.67563
348.179	23.42064
348.397	21.30025
348.614	55.08676
348.832	47.3204
349.05	66.03189
349.268	63.35031
349.485	59.63691
349.703	56.29225
349.921	85.45724
350.138	72.84863
350.356	81.38884
350.574	52.75166
350.791	60.53816
351.009	76.45169
351.227	56.02075
351.444	44.50658
351.662	66.17302
351.879	57.73659
352.097	64.04516
352.314	45.115
352.532	77.84069
352.75	65.98846
352.967	79.6962
353.185	74.32464
353.402	55.29311
353.62	43.09412
353.837	79.31643
354.055	64.436
354.272	78.71963
354.49	84.10117
354.707	97.37686
354.925	65.79305
355.142	70.50421
355.359	75.94165
355.577	88.52712
355.794	73.36958
356.012	93.09334
356.229	72.47961
356.446	63.98002
356.664	81.34544
356.881	87.54003
357.099	58.1601
357.316	74.24867
357.533	61.15708
357.751	69.28851
357.968	110.00662
358.185	80.04342
358.402	64.63142
358.62	106.80908
358.837	86.12982
359.054	61.5914
359.272	53.65314
359.489	66.44441
359.706	72.45791
359.923	94.85021
360.141	75.7246
360.358	76.21295
360.575	91.79188
360.792	69.10398
361.009	69.8638
361.226	80.16277
361.444	100.71646
361.661	73.11996
361.878	70.23285
362.095	75.62693
362.312	71.23144
362.529	98.19011
362.746	81.49734
362.963	64.92455
363.181	54.92385
363.398	83.77571
363.615	94.50318
363.832	74.11844
364.049	57.47596
364.266	100.4454
364.483	75.87653
364.7	66.12959
364.917	46.50562
365.134	82.27851
365.351	68.96286
365.568	91.01098
365.785	67.94249
366.002	67.19346
366.219	64.8377
366.436	86.34678
366.652	95.57678
366.869	73.90138
367.086	81.94218
367.303	67.12833
367.52	63.45888
367.737	96.57443
367.954	72.31681
368.171	72.55559
368.387	106.7332
368.604	81.80113
368.821	72.98972
369.038	69.55987
369.255	72.80522
369.471	58.83336
369.688	86.52035
369.905	86.88917
370.122	81.10674
370.339	86.81324
370.555	50.68791
370.772	51.9479
370.989	116.36807
371.205	70.7213
371.422	70.00491
371.639	67.63854
371.855	105.12887
372.072	72.66412
372.289	61.71083
372.505	112.80281
372.722	63.8823
372.939	90.33852
373.155	94.32967
373.372	60.69018
373.589	78.93665
373.805	73.84711
374.022	56.33569
374.238	67.07405
374.455	78.20963
374.671	92.44262
374.888	68.57208
375.104	53.20783
375.321	58.1601
375.537	76.56021
375.754	84.93652
375.97	83.2441
376.187	101.85486
376.403	85.09924
376.62	63.44802
376.836	63.82802
377.053	70.23285
377.269	64.49028
377.486	57.80174
377.702	48.624
377.918	50.49239
378.135	80.31468
378.351	79.79386
378.568	67.35629
378.784	62.04742
379	92.63784
379.217	55.64064
379.433	67.06319
379.649	97.47445
379.865	74.91068
380.082	100.91162
380.298	54.33738
380.514	102.67882
380.731	65.22853
380.947	46.64685
381.163	83.53703
381.379	72.15401
381.596	85.47894
381.812	97.61542
382.028	81.52989
382.244	77.20046
382.46	64.13201
382.676	94.03686
382.893	76.89661
383.109	72.91375
383.325	64.08858
383.541	89.45995
383.757	56.9547
383.973	84.39409
384.189	98.74311
384.405	68.74576
384.622	81.30204
384.838	84.99076
385.054	82.98372
385.27	78.9692
385.486	69.90722
385.702	57.95377
385.918	92.68122
386.134	77.58026
386.35	92.95235
386.566	82.98372
386.782	102.65714
386.998	85.16434
387.214	79.17537
387.43	76.64702
387.646	98.47203
387.861	99.59969
388.077	88.36442
388.293	83.63467
388.509	98.87322
388.725	80.67274
388.941	94.47065
389.157	62.69887
389.373	82.5172
389.588	87.22545
389.804	79.83726
390.02	93.62475
390.236	62.28629
390.452	72.94631
390.668	70.69959
390.883	97.14915
391.099	87.71358
391.315	94.8719
391.531	85.66336
391.746	73.34788
391.962	82.72334
392.178	70.12431
392.393	86.71561
392.609	118.03676
392.825	85.50063
393.041	68.02933
393.256	98.8407
393.472	106.29961
393.687	94.15615
393.903	114.59092
394.119	98.78648
394.334	77.72133
394.55	114.74263
394.766	78.78474
394.981	117.34329
395.197	105.30231
395.412	117.90674
395.628	95.78282
395.843	123.51888
396.059	155.19845
396.274	102.6463
396.49	135.88755
396.705	110.14752
396.921	63.55659
397.136	106.24541
397.352	97.44192
397.567	86.49865
397.783	75.94165
397.998	93.06081
398.214	81.01994
398.429	81.03079
398.644	124.26636
398.86	86.15152
399.075	102.73303
399.29	77.60196
399.506	64.8377
399.721	89.06947
399.936	80.04342
400.152	87.95222
400.367	76.79895
400.582	96.63949
400.798	104.34834
401.013	66.28158
401.228	96.03223
401.444	88.52712
401.659	86.79154
401.874	115.05689
402.089	89.94805
402.304	101.12846
402.52	84.56767
402.735	89.9372
402.95	71.01436
403.165	86.43357
403.38	106.44052
403.596	87.05189
403.811	103.65453
404.026	136.80794
404.241	79.79386
404.456	91.0869
404.671	110.19087
404.886	107.91471
405.101	69.99406
405.316	102.29937
405.532	108.20737
405.747	106.35381
405.962	112.62941
406.177	100.18519
406.392	88.92846
406.607	113.05207
406.822	97.05156
407.037	124.87299
407.252	140.13191
407.467	126.40035
407.682	131.02522
407.896	150.64255
408.111	144.55964
408.326	154.58166
408.541	196.68667
408.756	195.59538
408.971	209.76809
409.186	208.6125
409.401	188.301
409.616	118.14511
409.83	89.48165
410.045	91.61835
410.26	84.43748
410.475	65.67364
410.69	88.35357
410.905	97.2359
411.119	52.11083
411.334	85.81523
411.549	81.34544
411.764	102.32105
411.978	101.15014
412.193	87.03019
412.408	68.76747
412.623	77.25471
412.837	116.9207
413.052	108.74933
413.267	83.41769
413.481	89.78535
413.696	77.84069
413.911	85.95626
414.125	70.66702
414.34	76.05017
414.554	74.3572
414.769	96.39009
414.984	89.91551
415.198	59.26772
415.413	72.30596
415.627	86.60713
415.842	78.03601
416.056	95.21892
416.271	66.27072
416.485	88.961
416.7	86.40102
416.914	84.22051
417.129	66.53126
417.343	89.76366
417.558	80.98739
417.772	104.13153
417.987	86.43357
418.201	92.1281
418.415	69.53817
418.63	81.29119
418.844	78.91495
419.059	100.41287
419.273	84.7087
419.487	121.17882
419.702	92.34501
419.916	127.59184
420.13	85.60912
420.345	79.53344
420.559	75.62693
420.773	89.09116
420.988	84.99076
421.202	112.81364
421.416	77.22216
421.63	97.64795
421.845	93.47292
422.059	100.7273
422.273	70.26542
422.487	91.75935
422.701	121.61218
422.916	115.55536
423.13	91.94372
423.344	91.45566
423.558	71.86096
423.772	71.65474
423.986	87.71358
424.201	86.20576
424.415	113.26881
424.629	106.32129
424.843	93.37532
425.057	109.1612
425.271	68.0836
425.485	63.14402
425.699	72.31681
425.913	119.44532
426.127	92.55108
426.341	77.9492
426.555	93.64644
426.769	93.92841
426.983	108.80352
427.197	107.3619
427.411	89.91551
427.625	127.12608
427.839	75.16029
428.053	98.50456
428.267	76.20209
428.481	105.595
428.695	80.68359
428.908	67.66025
429.122	90.21921
429.336	88.78745
429.55	89.87212
429.764	101.65971
429.978	131.45843
430.191	139.29825
430.405	192.85076
430.619	184.34503
430.833	227.93807
431.047	310.95424
431.26	403.75689
431.474	484.68911
431.688	534.53132
431.901	561.45089
432.115	673.08479
432.329	755.05902
432.543	833.38547
432.756	998.35333
432.97	1019.3514
433.184	697.87029
433.397	316.73269
433.611	130.09381
433.824	108.98778
434.038	103.5678
434.252	79.20792
434.465	91.02183
434.679	72.80522
434.892	109.18288
435.106	65.85819
435.319	84.39409
435.533	110.66776
435.747	102.88481
435.96	63.51317
436.174	113.77815
436.387	100.98751
436.601	105.23727
436.814	102.19095
437.027	88.81999
437.241	99.68643
437.454	83.47194
437.668	96.07561
437.881	115.49035
438.095	100.02255
438.308	94.57909
438.521	119.32613
438.735	99.59969
438.948	98.45035
439.161	102.27769
439.375	86.82409
439.588	120.01955
439.801	100.6514
440.015	101.83318
440.228	110.92788
440.441	128.33921
440.654	135.07542
440.868	137.58754
441.081	85.3813
441.294	120.37709
441.507	121.72052
441.721	98.38529
441.934	99.32862
442.147	103.24257
442.36	91.6292
442.573	100.41287
442.786	77.33068
443	111.88161
443.213	89.08032
443.426	103.96892
443.639	111.23134
443.852	106.70068
444.065	115.86961
444.278	114.84016
444.491	104.37003
444.704	104.87953
444.917	124.0822
445.13	121.04881
445.343	85.86947
445.556	142.29715
445.769	149.41958
445.982	113.60476
446.195	132.02158
446.408	116.59563
446.621	125.23046
446.834	111.27469
447.047	98.04915
447.26	109.63811
447.473	111.62151
447.686	114.46088
447.899	96.86721
448.111	114.26581
448.324	112.71611
448.537	113.04123
448.75	98.71058
448.963	109.37798
449.176	117.15909
449.388	120.00872
449.601	105.07466
449.814	103.71957
450.027	91.81358
450.239	119.80286
450.452	106.4622
450.665	94.7743
450.878	98.23349
451.09	106.36465
451.303	102.3861
451.516	89.32979
451.728	110.09333
451.941	90.91337
452.154	121.10298
452.366	119.27196
452.579	91.58581
452.792	117.46248
453.004	109.26959
453.217	105.87684
453.429	96.47684
453.642	104.34834
453.854	125.70709
454.067	133.33196
454.28	147.10337
454.492	83.23326
454.705	86.68307
454.917	95.07794
455.13	127.76514
455.342	125.31712
455.555	79.38153
455.767	147.87185
455.979	100.83572
456.192	118.15595
456.404	91.05436
456.617	108.90107
456.829	97.69132
457.041	132.19486
457.254	108.3808
457.466	108.97694
457.679	93.24517
457.891	125.53377
458.103	106.8958
458.315	107.63289
458.528	87.20375
458.74	97.3118
458.952	110.55938
459.165	101.69224
459.377	83.85165
459.589	83.39599
459.801	115.59871
460.014	114.82932
460.226	116.31389
460.438	112.00083
460.65	74.50913
460.862	104.99878
461.075	87.54003
461.287	84.41579
461.499	76.52765
461.711	77.56941
461.923	90.01313
462.135	103.11247
462.347	81.35629
462.559	106.48388
462.771	108.51087
462.983	86.34678
463.196	104.89038
463.408	114.5259
463.62	100.66225
463.832	125.06798
464.044	102.7005
464.256	122.61971
464.468	90.90252
464.68	112.3368
464.891	117.23494
465.103	100.99835
465.315	121.81802
465.527	97.22505
465.739	84.95822
465.951	108.09898
466.163	103.15584
466.375	97.43108
466.587	111.56732
466.799	104.56516
467.01	81.99642
467.222	96.30333
467.434	84.15542
467.646	93.98263
467.858	109.56224
468.069	92.26909
468.281	62.52515
468.493	77.60196
468.705	82.76674
468.916	99.05755
469.128	71.71986
469.34	93.04996
469.551	71.9695
469.763	69.93978
469.975	86.19491
470.186	84.82803
470.398	73.01143
470.61	80.79209
470.821	55.74924
471.033	85.81523
471.245	110.45099
471.456	63.90402
471.668	95.40327
471.879	81.89878
472.091	95.19723
472.302	113.84318
472.514	103.83882
472.725	82.45211
472.937	77.79729
473.148	75.13858
473.36	86.43357
473.571	99.01418
473.783	80.55338
473.994	83.62382
474.206	75.9525
474.417	84.53512
474.629	88.49458
474.84	104.02312
475.051	104.15321
475.263	75.96335
475.474	79.50089
475.685	101.83318
475.897	81.62753
476.108	118.28597
476.319	83.20071
476.531	86.46611
476.742	102.45115
476.953	110.64608
477.165	130.86277
477.376	93.91756
477.587	87.54003
477.798	100.84656
478.01	85.44639
478.221	95.85873
478.432	99.25272
478.643	93.88503
478.854	79.83726
479.065	142.05898
479.277	102.05001
479.488	109.42134
479.699	107.40526
479.91	108.99862
480.121	116.11884
480.332	103.17752
480.543	109.81153
480.754	87.90884
480.965	94.167
481.176	111.28553
481.387	127.36438
481.598	108.50003
481.809	132.84464
482.02	178.35598
482.231	375.96904
482.442	811.95073
482.653	1667.35216
482.864	2822.01728
483.075	4390.26845
483.286	6252.64825
483.497	8465.23088
483.708	10223.55924
483.919	11667.83465
484.13	13005.50877
484.341	14829.5749
484.551	17389.23768
484.762	19656.68103
484.973	20302.41132
485.184	13909.49782
485.395	4466.27599
485.605	1213.29057
485.816	529.41391
486.027	278.41425
486.238	208.16969
486.449	204.32454
486.659	166.43891
486.87	152.67711
487.081	159.45067
487.291	147.10337
487.502	131.53424
487.713	105.71424
487.923	129.75806
488.134	110.75447
488.345	162.16612
488.555	139.80711
488.766	101.89823
488.976	139.8829
489.187	124.32052
489.398	110.86285
489.608	135.31365
489.819	108.26157
490.029	99.18767
490.24	149.87414
490.45	141.6909
490.661	131.01439
490.871	124.89465
491.082	104.60852
491.292	111.43726
491.503	116.29222
491.713	118.2318
491.924	107.73044
492.134	112.06586
492.344	103.34014
492.555	114.60175
492.765	133.51606
492.975	140.96555
493.186	141.66925
493.396	137.05698
493.607	87.88714
493.817	143.52043
494.027	116.43309
494.237	110.72195
494.448	100.68393
494.658	137.80409
494.868	98.22264
495.078	131.83748
495.289	137.43595
495.499	109.57308
495.709	89.73112
495.919	108.55422
496.129	122.58721
496.34	94.17784
496.55	80.69444
496.76	122.67388
496.97	127.62434
497.18	110.50519
497.39	103.9906
497.6	121.38467
497.81	128.77245
498.021	136.63469
498.231	133.08288
498.441	122.77138
498.651	109.17204
498.861	81.54074
499.071	115.91296
499.281	123.97387
499.491	107.78464
499.701	126.50867
499.911	115.62038
500.121	113.60476
500.331	108.10982
500.54	155.94507
500.75	115.55536
500.96	131.63171
501.17	98.29854
501.38	119.93287
501.59	123.24805
501.8	108.99862
502.01	88.26679
502.219	110.26674
502.429	132.09739
502.639	147.21161
502.849	131.13353
503.059	104.94458
503.268	118.75188
503.478	107.31854
503.688	125.55544
503.898	116.31389
504.107	104.29414
504.317	147.49303
504.527	114.32
504.736	127.4077
504.946	110.41848
505.156	136.62386
505.365	91.95457
505.575	121.04881
505.785	99.578
505.994	124.23386
506.204	112.72694
506.413	114.49339
506.623	90.95675
506.832	112.60773
507.042	103.58948
507.251	122.60888
507.461	122.44638
507.67	118.28597
507.88	98.33107
508.089	107.05839
508.299	123.21555
508.508	122.26221
508.718	85.45724
508.927	98.17927
509.137	135.62767
509.346	135.73595
509.555	107.95807
509.765	104.41339
509.974	181.3831
510.184	122.82555
510.393	101.20435
510.602	104.93374
510.812	119.43448
511.021	111.35056
511.23	145.07923
511.439	102.49452
511.649	99.40452
511.858	117.12658
512.067	110.80866
512.276	132.12988
512.486	204.82141
512.695	115.91296
512.904	95.60931
513.113	115.9563
513.322	105.7034
513.531	115.34947
513.741	132.74717
513.95	91.72681
514.159	117.73337
514.368	100.6514
514.577	104.80365
514.786	98.63468
514.995	103.9906
515.204	108.09898
515.413	96.7154
515.622	104.93374
515.831	102.42947
516.04	112.41266
516.249	79.81556
516.458	98.54794
516.667	118.00426
516.876	121.21132
517.085	102.19095
517.294	122.18637
517.503	99.49126
517.712	105.31315
517.921	109.71398
518.13	119.18528
518.339	109.50804
518.547	148.67279
518.756	94.95865
518.965	103.11247
519.174	103.50275
519.383	113.91903
519.591	95.43581
519.8	84.95822
520.009	104.66272
520.218	103.93639
520.426	111.19883
520.635	113.1496
520.844	106.4622
521.053	125.64209
521.261	113.01955
521.47	124.25552
521.679	114.6451
521.887	112.58606
522.096	95.29483
522.304	96.35755
522.513	84.61106
522.722	90.8266
522.93	124.24469
523.139	108.47835
523.347	89.48165
523.556	93.06081
523.764	94.0477
523.973	95.27314
524.182	84.44833
524.39	118.95775
524.598	85.48978
524.807	88.02816
525.015	91.47736
525.224	100.75983
525.432	101.7356
525.641	85.25112
525.849	96.95396
526.057	113.19295
526.266	122.85805
526.474	94.30798
526.683	83.41769
526.891	123.00972
527.099	96.99734
527.308	106.90664
527.516	80.81379
527.724	131.84831
527.932	77.66707
528.141	130.81945
528.349	130.41873
528.557	106.75488
528.765	94.94781
528.974	79.62025
529.182	92.83305
529.39	116.56312
529.598	87.03019
529.806	78.14453
530.015	107.75212
530.223	104.46759
530.431	91.73766
530.639	85.18603
530.847	84.25306
531.055	100.13097
531.263	99.27441
531.471	72.68583
531.679	73.32617
531.887	113.24714
532.095	113.12793
532.303	123.60554
532.511	92.0088
532.719	95.98886
532.927	95.78282
533.135	109.65979
533.343	133.50523
533.551	112.44517
533.759	101.55129
533.967	127.77598
534.175	98.74311
534.383	124.54801
534.591	116.93154
534.798	120.70212
535.006	84.67615
535.214	107.94723
535.422	84.84973
535.63	130.10464
535.837	89.73112
536.045	96.74793
536.253	93.04996
536.461	108.27241
536.668	103.82798
536.876	122.58721
537.084	122.98805
537.292	112.94369
537.499	126.77946
537.707	114.36334
537.915	114.60175
538.122	125.6096
538.33	120.86463
538.538	110.04997
538.745	119.40198
538.953	131.89163
539.16	114.34167
539.368	95.83704
539.575	104.64104
539.783	107.03671
539.99	134.12248
540.198	112.29345
540.406	98.60215
540.613	110.13668
540.82	88.89592
541.028	117.79838
541.235	108.17485
541.443	132.1732
541.65	146.31321
541.858	127.96011
542.065	100.54298
542.272	114.37418
542.48	144.65706
542.687	94.05855
542.895	120.44209
543.102	101.70308
543.309	113.11709
543.516	113.16044
543.724	110.55938
543.931	110.36429
544.138	131.28515
544.346	102.97154
544.553	112.86783
544.76	112.12004
544.967	105.10718
545.174	127.51602
545.382	103.24257
545.589	123.82221
545.796	123.11805
546.003	103.5678
546.21	116.75816
546.417	145.62046
546.624	111.9358
546.832	116.3464
547.039	105.84432
547.246	139.90455
547.453	112.04418
547.66	92.33417
547.867	117.38663
548.074	109.15037
548.281	99.75149
548.488	109.24792
548.695	93.45123
548.902	108.95527
549.109	95.83704
549.316	91.18452
549.523	90.39275
549.73	103.5678
549.936	102.94985
550.143	104.17489
550.35	93.75489
550.557	94.63332
550.764	90.41444
550.971	124.63467
551.178	105.33483
551.384	119.79203
551.591	119.55366
551.798	129.06489
552.005	99.15514
552.211	120.76712
552.418	107.81716
552.625	87.90884
552.832	105.7576
553.038	129.38982
553.245	102.78723
553.452	128.42586
553.658	94.25375
553.865	95.67438
554.072	104.9229
554.278	120.24708
554.485	136.7538
554.691	140.73819
554.898	95.02372
555.105	136.02832
555.311	115.05689
555.518	131.39345
555.724	105.10718
555.931	91.82442
556.137	87.04104
556.344	119.73785
556.55	114.4392
556.757	111.48061
556.963	96.59612
557.17	113.13876
557.376	124.51551
557.582	135.90921
557.789	88.66813
557.995	109.39966
558.202	90.58798
558.408	111.64318
558.614	93.2994
558.821	115.65289
559.027	111.24218
559.233	122.58721
559.439	139.96951
559.646	107.42694
559.852	127.92762
560.058	122.84722
560.264	121.34133
560.471	124.0172
560.677	123.05305
560.883	128.12258
561.089	125.5771
561.295	112.49936
561.502	112.43433
561.708	112.93286
561.914	114.63426
562.12	120.09539
562.326	121.37383
562.532	129.33566
562.738	132.62805
562.944	111.28553
563.15	108.42415
563.356	105.06382
563.562	117.41914
563.768	129.21652
563.974	93.07165
564.18	130.4079
564.386	105.45408
564.592	100.35866
564.798	104.09901
565.004	142.68687
565.21	89.95889
565.416	137.40347
565.622	128.24173
565.828	135.87672
566.034	125.41461
566.239	116.99655
566.445	144.54881
566.651	141.10629
566.857	155.65292
567.063	138.57283
567.268	159.072
567.474	153.33722
567.68	150.97805
567.886	168.23436
568.091	185.28544
568.297	177.28559
568.503	178.09649
568.708	192.95882
568.914	194.20149
569.12	201.11624
569.325	179.64254
569.531	184.7666
569.737	156.10738
569.942	173.78224
570.148	190.75429
570.353	232.4275
570.559	218.75197
570.765	199.17164
570.97	197.65908
571.176	249.96831
