Data from deutdg_660ms_6_SR4014911__0__16-51-31-248.txt Node

Date: Sun Jul 13 16:51:31 EDT 2025
User: cryst
Spectrometer: SR401491
Trigger mode: 0
Integration Time (sec): 6.600000E-1
Scans to average: 6
Electric dark correction enabled: true
Nonlinearity correction enabled: true
Boxcar width: 0
XAxis mode: Wavelengths
Number of Pixels in Spectrum: 3648
>>>>>Begin Spectral Data<<<<<
344.912	-1191.47231
345.129	-1188.60062
345.347	-1246.31027
345.565	-1175.97039
345.783	533.91291
346.001	261.17591
346.219	271.95408
346.437	364.66095
346.654	814.72731
346.872	263.87083
347.09	-134.23004
347.308	664.51147
347.526	441.54741
347.743	133.68331
347.961	1012.26322
348.179	474.56671
348.397	639.85355
348.614	998.74092
348.832	1360.64625
349.05	1309.09251
349.268	1451.41224
349.485	1426.7397
349.703	1220.29226
349.921	1746.80515
350.138	1607.99546
350.356	1613.70781
350.574	1059.46538
350.791	1276.31617
351.009	1571.28153
351.227	1415.44133
351.444	1350.54942
351.662	1359.77593
351.879	1235.65845
352.097	1395.44478
352.314	1283.81515
352.532	1418.22274
352.75	1527.6029
352.967	1584.96601
353.185	1610.24586
353.402	1335.22553
353.62	1271.08351
353.837	1753.88213
354.055	1516.50333
354.272	1789.94212
354.49	2040.64681
354.707	2027.08255
354.925	1310.13814
355.142	1559.84586
355.359	1741.62625
355.577	1786.66499
355.794	1754.22732
356.012	2007.50311
356.229	1622.36157
356.446	1323.20635
356.664	1745.07891
356.881	1992.38452
357.099	1511.99336
357.316	1479.02233
357.533	1765.96248
357.751	1371.61081
357.968	2310.94389
358.185	1797.01311
358.402	1600.89735
358.62	1854.23538
358.837	1937.02926
359.054	1349.50478
359.272	1302.64387
359.489	1432.30091
359.706	1566.25711
359.923	1779.24756
360.141	1702.59459
360.358	1866.12013
360.575	1723.84127
360.792	1513.72802
361.009	1580.11627
361.226	1713.65091
361.444	2082.86443
361.661	1748.70395
361.878	1668.3734
362.095	1415.26749
362.312	1863.53671
362.529	1728.84933
362.746	1839.93569
362.963	1318.67649
363.181	1388.13941
363.398	1631.35982
363.615	2259.81865
363.832	1370.04462
364.049	1398.05355
364.266	2181.42605
364.483	1796.3233
364.7	1571.28153
364.917	1194.7855
365.134	1720.73257
365.351	1639.1454
365.568	1923.61185
365.785	1513.55456
366.002	1326.51632
366.219	1499.67541
366.436	1916.55778
366.652	1997.71085
366.869	1596.04925
367.086	2062.1027
367.303	1343.23643
367.52	1484.57703
367.737	2067.59413
367.954	1912.084
368.171	1558.63282
368.387	2253.31819
368.604	1578.21088
368.821	1793.04658
369.038	1537.31282
369.255	1806.49706
369.471	1380.83281
369.688	2089.55465
369.905	1955.08598
370.122	1787.35493
370.339	1853.37406
370.555	1362.5609
370.772	1378.57099
370.989	2372.61688
371.205	1515.80952
371.422	1738.86395
371.639	1526.73584
371.855	2172.0054
372.072	1605.57184
372.289	1408.13931
372.505	2143.04916
372.722	1381.87669
372.939	1644.16212
373.155	2079.26169
373.372	1457.49139
373.589	1990.15075
373.805	1564.17788
374.022	1496.72555
374.238	1394.74909
374.455	1844.58782
374.671	1981.21477
374.888	1871.11437
375.104	1132.87279
375.321	1310.13814
375.537	1557.07315
375.754	1785.45758
375.97	1742.66207
376.187	2248.52796
376.403	1514.76878
376.62	1782.18016
376.836	1479.54311
377.053	1569.20252
377.269	1530.55077
377.486	1434.90748
377.702	968.8691
377.918	1190.59106
378.135	1739.72718
378.351	1860.60869
378.568	1563.83133
378.784	1622.01545
379	1677.19024
379.217	1423.61121
379.433	1404.66172
379.649	1882.30666
379.865	1563.83133
380.082	2193.41387
380.298	1444.46361
380.514	2290.94321
380.731	1607.30301
380.947	1375.43905
381.163	1694.81914
381.379	1596.39556
381.596	1662.1488
381.812	2102.76132
382.028	1849.23954
382.244	1665.95282
382.46	1421.52543
382.676	2307.69634
382.893	1713.1327
383.109	1633.60912
383.325	1585.65878
383.541	2043.56528
383.757	1098.55156
383.973	1850.44548
384.189	1967.1205
384.405	1681.85733
384.622	1713.1327
384.838	1962.13509
385.054	1889.53736
385.27	2151.7889
385.486	1570.58853
385.702	1448.63292
385.918	1856.30248
386.134	1855.26894
386.35	1966.9486
386.566	2247.67252
386.782	2185.70768
386.998	2211.22004
387.214	1962.307
387.43	1921.3753
387.646	2409.14955
387.861	2169.43588
388.077	1887.98801
388.293	2057.29728
388.509	2098.98829
388.725	1869.56448
388.941	1922.06348
389.157	1774.07197
389.373	1870.42554
389.588	2034.63773
389.804	1919.65481
390.02	2318.80572
390.236	1564.35115
390.452	1692.74548
390.668	1794.42628
390.883	2385.42264
391.099	2003.72385
391.315	2037.04144
391.531	1669.06498
391.746	1985.85478
391.962	1950.7873
392.178	1981.73034
392.393	1868.35898
392.609	2547.42337
392.825	1903.99583
393.041	1753.01914
393.256	2118.53683
393.472	2258.45019
393.687	2176.45898
393.903	2451.29144
394.119	2135.85078
394.334	2274.0147
394.55	2539.75801
394.766	2128.30869
394.981	2542.14288
395.197	2556.79106
395.412	2759.35959
395.628	2645.2998
395.843	2858.49987
396.059	3598.61794
396.274	2613.99327
396.49	3138.00336
396.705	2266.48948
396.921	1769.24094
397.136	2238.26194
397.352	2230.90359
397.567	2104.64774
397.783	2179.88459
397.998	2134.30816
398.214	2178.34309
398.429	1786.14753
398.644	2726.90925
398.86	2053.34966
399.075	2492.21454
399.29	1960.75972
399.506	1897.28345
399.721	2068.45212
399.936	1947.69204
400.152	1832.52588
400.367	2133.96534
400.582	2097.78773
400.798	2474.31362
401.013	1733.68422
401.228	2273.1596
401.444	2305.47423
401.659	2193.75635
401.874	2595.78186
402.089	2292.48194
402.304	2172.0054
402.52	2289.57541
402.735	1815.97926
402.95	1840.45261
403.165	2303.93581
403.38	2625.73473
403.596	2083.20754
403.811	2372.1046
404.026	2858.33021
404.241	1983.96445
404.456	2039.61673
404.671	2676.25344
404.886	2497.15781
405.101	2081.14887
405.316	2326.15396
405.532	2612.97218
405.747	2415.80526
405.962	2386.78844
406.177	2343.06888
406.392	2124.02298
406.607	2640.02623
406.822	2693.42568
407.037	2956.50828
407.252	3539.81302
407.467	3457.70938
407.682	3635.3364
407.896	3965.54188
408.111	3981.33626
408.326	4219.9269
408.541	5002.75267
408.756	5643.7467
408.971	5845.41197
409.186	5895.86394
409.401	5229.8836
409.616	3022.74719
409.83	2448.90352
410.045	2076.85973
410.26	1964.7138
410.475	1800.8069
410.69	2244.59285
410.905	2223.37323
411.119	1775.6247
411.334	2006.81599
411.549	2218.92304
411.764	2387.9835
411.978	2634.58217
412.193	2218.92304
412.408	2025.1936
412.623	1729.02201
412.837	2733.87613
413.052	2450.77975
413.267	2322.56539
413.481	2058.84192
413.696	1964.36998
413.911	1996.50818
414.125	1955.60179
414.34	1832.69821
414.554	1961.27549
414.769	2377.22723
414.984	2125.39444
415.198	1626.16873
415.413	1744.73365
415.627	2248.52796
415.842	1987.74505
416.056	2182.96747
416.271	1901.75847
416.485	2259.47654
416.7	2233.98394
416.914	2009.04911
417.129	1983.96445
417.343	2375.69048
417.558	2051.97652
417.772	2441.39809
417.987	2243.73736
418.201	1915.00921
418.415	1766.30759
418.63	2146.13392
418.844	2097.44471
419.059	2485.73664
419.273	2163.95387
419.487	2755.1129
419.702	2291.45612
419.916	2770.90944
420.13	2157.27201
420.345	2009.39265
420.559	2100.53183
420.773	2144.76294
420.988	2210.0217
421.202	2774.13631
421.416	2129.33721
421.63	2235.69517
421.845	2342.21469
422.059	2230.21905
422.273	1842.34796
422.487	2328.37536
422.701	2908.02647
422.916	2868.84853
423.13	2210.53528
423.344	2057.12565
423.558	1956.11761
423.772	1821.66776
423.986	2214.13017
424.201	2074.2861
424.415	2644.10903
424.629	2421.26586
424.843	2140.47841
425.057	2471.41495
425.271	1717.96912
425.485	1771.1389
425.699	1754.74511
425.913	2471.92649
426.127	2175.60255
426.341	2129.85146
426.555	2156.75799
426.769	2570.07408
426.983	2758.68013
427.197	2351.4393
427.411	2178.17181
427.625	2595.95208
427.839	2163.95387
428.053	2074.11452
428.267	2059.52842
428.481	2354.34308
428.695	2053.69294
428.908	1861.64213
429.122	2505.16858
429.336	2291.28515
429.55	2193.92758
429.764	2632.3704
429.978	3404.23595
430.191	3668.00392
430.405	4842.10869
430.619	5229.04754
430.833	6693.75271
431.047	8304.08598
431.26	10953.19234
431.474	12846.89535
431.688	14089.77129
431.901	14663.61358
432.115	17370.23484
432.329	19028.36519
432.543	20766.32987
432.756	23693.87632
432.97	24628.91374
433.184	17818.89725
433.397	8844.97606
433.611	3687.36497
433.824	3045.43708
434.038	2462.54768
434.252	2393.27563
434.465	2204.20091
434.679	2184.16633
434.892	2371.42155
435.106	1651.94563
435.319	1924.98815
435.533	2555.76919
435.747	2552.19253
435.96	1929.63289
436.174	2577.56601
436.387	2450.60918
436.601	2278.80301
436.814	2629.81829
437.027	1909.33072
437.241	2460.16014
437.454	1860.60869
437.668	2576.54443
437.881	2520.16506
438.095	2313.84946
438.308	2440.37456
438.521	2817.0926
438.735	2318.12212
438.948	2377.22723
439.161	2207.28258
439.375	2201.97517
439.588	2440.20397
439.801	2513.68969
440.015	2329.05885
440.228	2682.88475
440.441	3090.12364
440.654	3450.79463
440.868	3154.91644
441.081	2115.96502
441.294	2666.5605
441.507	2586.24889
441.721	2174.23223
441.934	2560.7081
442.147	2224.05784
442.36	2483.17941
442.573	2640.36647
442.786	2215.15725
443	2847.64091
443.213	2447.36838
443.426	2541.29115
443.639	2976.84247
443.852	2687.30531
444.065	2943.96657
444.278	2730.47773
444.491	2880.89212
444.704	2595.44142
444.917	2790.43856
445.13	2649.04211
445.343	2500.7372
445.556	3529.36345
445.769	3564.41666
445.982	2827.2766
446.195	2983.61952
446.408	2884.45399
446.621	3174.8702
446.834	2623.52271
447.047	2637.98475
447.26	2449.07409
447.473	2802.32359
447.686	2743.0511
447.899	2829.48297
448.111	3065.24393
448.324	2849.16803
448.537	2667.58087
448.75	2645.12969
448.963	2664.51973
449.176	3091.47745
449.388	2830.16184
449.601	2719.43191
449.814	2593.56896
450.027	2786.53311
450.239	2609.56847
450.452	2654.82532
450.665	2280.17104
450.878	2540.09871
451.09	2758.51027
451.303	2696.31568
451.516	2463.74141
451.728	2789.41977
451.941	2098.64527
452.154	2988.36315
452.366	2877.49973
452.579	2363.39521
452.792	2905.65256
453.004	2849.50739
453.217	2452.14425
453.429	2609.0579
453.642	2444.98033
453.854	2975.82586
454.067	3189.24123
454.28	3200.7366
454.492	2188.79028
454.705	2552.0222
454.917	2382.86168
455.13	3196.84861
455.342	2845.6047
455.555	2318.12212
455.767	3281.3376
455.979	2717.05261
456.192	3001.06811
456.404	2352.46418
456.617	2794.8532
456.829	2553.04413
457.041	3029.01286
457.254	2978.87563
457.466	2587.9513
457.679	2679.14408
457.891	3157.45315
458.103	2923.28585
458.315	2869.01817
458.528	2488.97567
458.74	2703.62522
458.952	2670.47183
459.165	2585.9084
459.377	2257.59488
459.589	2044.5953
459.801	2692.23564
460.014	2669.11139
460.226	2565.64667
460.438	2539.41731
460.65	2180.74096
460.862	2722.15102
461.075	2478.23516
461.287	2125.22301
461.499	1917.59014
461.711	2046.14028
461.923	2382.52021
462.135	2590.8453
462.347	2412.2215
462.559	2682.20464
462.771	2704.98506
462.983	2265.46324
463.196	2728.43861
463.408	2962.27009
463.62	2862.06266
463.832	3025.28738
464.044	2896.32582
464.256	3069.98342
464.468	2456.91978
464.68	2704.47512
464.891	2883.77555
465.103	2398.56735
465.315	3185.52186
465.527	2251.0942
465.739	2038.92999
465.951	2353.14742
466.163	2400.10358
466.375	2119.05118
466.587	2765.30457
466.799	2172.1767
467.01	2329.22973
467.222	2308.7219
467.434	2206.94018
467.646	2220.63469
467.858	2525.78793
468.069	2335.89339
468.281	2032.40562
468.493	1737.65539
468.705	1928.08469
468.916	2172.86188
469.128	1835.11082
469.34	1966.9486
469.551	1932.21314
469.763	1518.41126
469.975	1971.41791
470.186	2143.5633
470.398	1812.87619
470.61	1968.66761
470.821	1736.61947
471.033	2007.84667
471.245	2554.57699
471.456	1688.5979
471.668	2132.76549
471.879	1889.88166
472.091	2466.6404
472.302	2555.25825
472.514	2684.07493
472.725	2153.50242
472.937	1949.41165
473.148	1779.76509
473.36	2140.47841
473.571	2374.66596
473.783	2096.93017
473.994	2183.31001
474.206	2012.31273
474.417	2000.45973
474.629	2371.59231
474.84	2562.92198
475.051	2555.42856
475.263	1923.26777
475.474	2105.16221
475.685	2393.44634
475.897	2171.66281
476.108	2717.56247
476.319	1919.3107
476.531	2124.19442
476.742	2479.94012
476.953	2673.70278
477.165	3092.83125
477.376	2344.09388
477.587	2309.57652
477.798	2404.02934
478.01	1984.8237
478.221	2390.71497
478.432	2437.13328
478.643	2355.53871
478.854	2162.06932
479.065	3138.34165
479.277	2868.00033
479.488	2766.49351
479.699	2948.03434
479.91	2605.48382
480.121	2915.99559
480.332	2648.70191
480.543	2856.63358
480.754	2207.79617
480.965	2576.71469
481.176	2736.42484
481.387	3335.54439
481.598	2765.13472
481.809	3664.29975
482.02	5179.71757
482.231	10504.80962
482.442	20023.58475
482.653	36139.65435
482.864	53620.61519
483.075	62682.13143
483.286	62682.13143
483.497	62682.13143
483.708	62682.13143
483.919	62682.13143
484.13	62682.13143
484.341	62682.13143
484.551	62682.13143
484.762	62682.13143
484.973	62682.13143
485.184	62682.13143
485.395	62682.13143
485.605	62682.13143
485.816	62682.13143
486.027	62682.13143
486.238	62682.13143
486.449	62682.13143
486.659	62682.13143
486.87	25565.32421
487.081	4920.26445
487.291	4530.29011
487.502	3857.79645
487.713	3580.42332
487.923	3743.24428
488.134	3246.87429
488.345	4202.64318
488.555	3764.27746
488.766	3167.09208
488.976	3805.49362
489.187	3590.36329
489.398	3698.81195
489.608	3701.3369
489.819	3075.06118
490.029	2845.43501
490.24	3966.21401
490.45	3570.98806
490.661	3399.51157
490.871	3061.18132
491.082	2724.87004
491.292	2852.56155
491.503	3318.66042
491.713	3228.11747
491.924	3261.57324
492.134	3084.7082
492.344	3086.23132
492.555	3182.47864
492.765	3448.26474
492.975	3320.68663
493.186	3415.03382
493.396	3291.13397
493.607	2605.99441
493.817	3463.61191
494.027	2993.61475
494.237	2825.57935
494.448	2832.87727
494.658	3139.6948
494.868	2584.88694
495.078	3138.84908
495.289	3573.51543
495.499	3077.59997
495.709	2782.62747
495.919	3019.86823
496.129	2976.5036
496.34	2601.39894
496.55	2356.73433
496.76	2998.35786
496.97	3252.11208
497.18	2879.53518
497.39	2846.28344
497.6	3300.42281
497.81	3588.51013
498.021	3495.31194
498.231	3618.99963
498.441	3120.07235
498.651	2860.36611
498.861	2443.27452
499.071	2994.12295
499.281	3249.40873
499.491	2798.07913
499.701	2852.56155
499.911	3058.81139
500.121	2987.6855
500.331	3255.82906
500.54	3821.13593
500.75	3235.38402
500.96	3080.81566
501.17	2838.13817
501.38	3034.77013
501.59	3259.37697
501.8	2772.26814
502.01	2315.72947
502.219	3015.12621
502.429	3283.87123
502.639	3516.04739
502.849	3293.83626
503.059	2892.08607
503.268	2878.17822
503.478	2640.87683
503.688	3131.57564
503.898	2858.16055
504.107	2927.69362
504.317	3637.18889
504.527	3354.78899
504.736	3256.33591
504.946	2794.51362
505.156	3185.18373
505.365	2788.74056
505.575	2798.75826
505.785	2797.06043
505.994	3251.09833
506.204	2732.68671
506.413	2733.36638
506.623	2327.00836
506.832	2686.28521
507.042	3004.96394
507.251	3142.57017
507.461	2909.38297
507.67	2897.34333
507.88	2660.26795
508.089	2787.89155
508.299	2897.34333
508.508	2777.53288
508.718	2387.12989
508.927	2556.96137
509.137	3323.55704
509.346	3033.75416
509.555	2644.10903
509.765	2727.07918
509.974	4020.98366
510.184	3179.09718
510.393	2700.73549
510.602	2735.06554
510.812	3273.90528
511.021	2857.65156
511.23	3440.50607
511.439	2583.01421
511.649	2603.95201
511.858	2965.48977
512.067	2947.01741
512.276	3027.48881
512.486	3666.48859
512.695	2792.64591
512.904	2364.93225
513.113	2739.14337
513.322	2854.76726
513.531	2891.40769
513.741	3186.02906
513.95	2366.98157
514.159	2941.08512
514.368	2410.34422
514.577	2690.36555
514.786	2571.94714
514.995	2640.02623
515.204	2776.17427
515.413	2391.0564
515.622	2478.23516
515.831	2689.00546
516.04	2601.56914
516.249	2343.92305
516.458	2452.14425
516.667	2752.56479
516.876	2950.23764
517.085	2607.69637
517.294	3026.30343
517.503	2625.56458
517.712	2602.24997
517.921	2837.79877
518.13	2911.07856
518.339	2942.4411
518.547	3408.45399
518.756	2549.63766
518.965	2783.30673
519.174	2614.16345
519.383	2685.94517
519.591	2314.19128
519.8	2180.91224
520.009	2618.92831
520.218	2494.77145
520.426	2615.01434
520.635	2869.69673
520.844	2630.66901
521.053	2830.67099
521.261	3009.70647
521.47	2752.73466
521.679	2872.07163
521.887	2739.9929
522.096	2559.00506
522.304	2321.54005
522.513	2154.70186
522.722	2258.27913
522.93	2927.01551
523.139	2624.88396
523.347	2301.71358
523.556	2276.06688
523.764	2471.92649
523.973	2385.42264
524.182	2276.06688
524.39	2731.32734
524.598	2353.65985
524.807	2087.32467
525.015	2697.84564
525.224	2741.86182
525.432	2559.68628
525.641	2203.17365
525.849	2491.36222
526.057	2539.92836
526.266	2892.76444
526.474	2121.62285
526.683	2406.5895
526.891	2695.46569
527.099	2430.82087
527.308	2557.30199
527.516	2230.90359
527.724	2652.95433
527.932	2298.12365
528.141	2909.72209
528.349	3154.40909
528.557	2684.92504
528.765	2390.71497
528.974	2180.22714
529.182	2372.27536
529.39	2514.88257
529.598	2301.20074
529.806	2189.98902
530.015	2618.58797
530.223	2303.25205
530.431	2260.67392
530.639	1999.08531
530.847	2236.72189
531.055	2498.86231
531.263	2622.67192
531.471	2012.82802
531.679	2026.91083
531.887	2594.76053
532.095	2772.60781
532.303	2873.25906
532.511	2597.9947
532.719	2386.78844
532.927	2588.80249
533.135	2682.20464
533.343	3034.6008
533.551	2699.37557
533.759	2679.82422
533.967	3068.6293
534.175	2720.45159
534.383	3196.67956
534.591	3075.39969
534.798	2948.88177
535.006	2407.10151
535.214	2563.94375
535.422	2388.66638
535.63	2759.69931
535.837	2114.76481
536.045	2251.26528
536.253	2494.60099
536.461	2537.54342
536.668	2604.80302
536.876	2985.14428
537.084	3124.97833
537.292	3022.23914
537.499	3136.14275
537.707	2779.06129
537.915	3044.25192
538.122	3260.39064
538.33	3161.17355
538.538	2933.28778
538.745	3064.56684
538.953	3149.33544
539.16	2865.28602
539.368	2635.2627
539.575	2421.94841
539.783	2668.60122
539.99	3338.24559
540.198	2780.25004
540.406	2732.68671
540.613	2692.91566
540.82	2514.54175
541.028	2885.98046
541.235	2960.23655
541.443	3316.1276
541.65	3623.54718
541.858	3003.77827
542.065	2707.87464
542.272	2513.8601
542.48	3330.6483
542.687	2613.65291
542.895	3213.41383
543.102	2767.34275
543.309	2995.30874
543.516	2992.25952
543.724	2930.5755
543.931	2647.17098
544.138	3140.5405
544.346	2753.92379
544.553	2934.98291
544.76	2767.68244
544.967	2678.46394
545.174	2879.19594
545.382	2770.06024
545.589	2961.25333
545.796	3152.04142
546.003	2427.92039
546.21	2924.81164
546.417	3456.02289
546.624	3056.94926
546.832	3007.84337
547.039	3086.23132
547.246	3461.9255
547.453	3026.13409
547.66	2593.56896
547.867	3081.32339
548.074	2907.85691
548.281	2680.50435
548.488	2703.28526
548.695	2669.11139
548.902	2819.80845
549.109	2643.7688
549.316	2363.566
549.523	2427.57914
549.73	2663.32925
549.936	2771.41895
550.143	2495.62373
550.35	2387.47133
550.557	2332.13448
550.764	2412.39216
550.971	2904.80471
551.178	2677.44372
551.384	3060.67348
551.591	3128.69994
551.798	3133.26718
552.005	2657.71676
552.211	3024.61
552.418	2757.49107
552.625	2321.02737
552.832	2914.97829
553.038	2941.76311
553.245	2995.13935
553.452	3028.50485
553.658	2604.29242
553.865	2590.67507
554.072	2768.02213
554.278	2848.14995
554.485	3629.61034
554.691	3403.56105
554.898	2661.2884
